 Z=  29 A=  63  D1M-QRPA-Inter
 E[MeV]  fQRPA[mb/MeV]
    0.100   1.490E-05
    0.200   5.961E-05
    0.300   1.342E-04
    0.400   2.387E-04
    0.500   3.732E-04
    0.600   5.379E-04
    0.700   7.330E-04
    0.800   9.586E-04
    0.900   1.215E-03
    1.000   1.502E-03
    1.100   1.821E-03
    1.200   2.171E-03
    1.300   2.554E-03
    1.400   2.968E-03
    1.500   3.416E-03
    1.600   3.897E-03
    1.700   4.411E-03
    1.800   4.960E-03
    1.900   5.544E-03
    2.000   6.163E-03
    2.100   6.819E-03
    2.200   7.511E-03
    2.300   8.241E-03
    2.400   9.009E-03
    2.500   9.817E-03
    2.600   1.067E-02
    2.700   1.155E-02
    2.800   1.249E-02
    2.900   1.346E-02
    3.000   1.448E-02
    3.100   1.554E-02
    3.200   1.665E-02
    3.300   1.781E-02
    3.400   1.902E-02
    3.500   2.028E-02
    3.600   2.159E-02
    3.700   2.296E-02
    3.800   2.438E-02
    3.900   2.586E-02
    4.000   2.739E-02
    4.100   2.899E-02
    4.200   3.065E-02
    4.300   3.238E-02
    4.400   3.418E-02
    4.500   3.604E-02
    4.600   3.798E-02
    4.700   3.999E-02
    4.800   4.208E-02
    4.900   4.425E-02
    5.000   4.650E-02
    5.100   4.884E-02
    5.200   5.128E-02
    5.300   5.380E-02
    5.400   5.642E-02
    5.500   5.915E-02
    5.600   6.198E-02
    5.700   6.492E-02
    5.800   6.797E-02
    5.900   7.115E-02
    6.000   7.445E-02
    6.100   7.788E-02
    6.200   8.145E-02
    6.300   8.517E-02
    6.400   8.904E-02
    6.500   9.307E-02
    6.600   9.726E-02
    6.700   1.016E-01
    6.800   1.062E-01
    6.900   1.109E-01
    7.000   1.159E-01
    7.100   1.210E-01
    7.200   1.264E-01
    7.300   1.321E-01
    7.400   1.379E-01
    7.500   1.441E-01
    7.600   1.505E-01
    7.700   1.572E-01
    7.800   1.642E-01
    7.900   1.715E-01
    8.000   1.791E-01
    8.100   1.871E-01
    8.200   1.955E-01
    8.300   2.042E-01
    8.400   2.134E-01
    8.500   2.229E-01
    8.600   2.329E-01
    8.700   2.433E-01
    8.800   2.542E-01
    8.900   2.656E-01
    9.000   2.774E-01
    9.100   2.898E-01
    9.200   3.026E-01
    9.300   3.160E-01
    9.400   3.299E-01
    9.500   3.444E-01
    9.600   3.594E-01
    9.700   3.750E-01
    9.800   3.911E-01
    9.900   4.079E-01
   10.000   4.252E-01
   10.100   4.432E-01
   10.200   4.619E-01
   10.300   4.812E-01
   10.400   5.011E-01
   10.500   5.218E-01
   10.600   5.433E-01
   10.700   5.656E-01
   10.800   5.886E-01
   10.900   6.126E-01
   11.000   6.374E-01
   11.100   6.633E-01
   11.200   6.901E-01
   11.300   7.181E-01
   11.400   7.473E-01
   11.500   7.776E-01
   11.600   8.093E-01
   11.700   8.425E-01
   11.800   8.771E-01
   11.900   9.132E-01
   12.000   9.511E-01
   12.100   9.906E-01
   12.200   1.032E+00
   12.300   1.075E+00
   12.400   1.121E+00
   12.500   1.168E+00
   12.600   1.217E+00
   12.700   1.269E+00
   12.800   1.322E+00
   12.900   1.378E+00
   13.000   1.436E+00
   13.100   1.497E+00
   13.200   1.560E+00
   13.300   1.626E+00
   13.400   1.694E+00
   13.500   1.765E+00
   13.600   1.839E+00
   13.700   1.916E+00
   13.800   1.996E+00
   13.900   2.079E+00
   14.000   2.165E+00
   14.100   2.255E+00
   14.200   2.348E+00
   14.300   2.445E+00
   14.400   2.544E+00
   14.500   2.647E+00
   14.600   2.753E+00
   14.700   2.861E+00
   14.800   2.971E+00
   14.900   3.082E+00
   15.000   3.194E+00
   15.100   3.306E+00
   15.200   3.417E+00
   15.300   3.527E+00
   15.400   3.633E+00
   15.500   3.736E+00
   15.600   3.833E+00
   15.700   3.924E+00
   15.800   4.008E+00
   15.900   4.084E+00
   16.000   4.151E+00
   16.100   4.207E+00
   16.200   4.253E+00
   16.300   4.288E+00
   16.400   4.312E+00
   16.500   4.325E+00
   16.600   4.326E+00
   16.700   4.317E+00
   16.800   4.297E+00
   16.900   4.268E+00
   17.000   4.230E+00
   17.100   4.184E+00
   17.200   4.131E+00
   17.300   4.072E+00
   17.400   4.008E+00
   17.500   3.940E+00
   17.600   3.868E+00
   17.700   3.795E+00
   17.800   3.720E+00
   17.900   3.644E+00
   18.000   3.569E+00
   18.100   3.494E+00
   18.200   3.420E+00
   18.300   3.347E+00
   18.400   3.276E+00
   18.500   3.208E+00
   18.600   3.141E+00
   18.700   3.077E+00
   18.800   3.015E+00
   18.900   2.955E+00
   19.000   2.897E+00
   19.100   2.842E+00
   19.200   2.788E+00
   19.300   2.736E+00
   19.400   2.686E+00
   19.500   2.637E+00
   19.600   2.588E+00
   19.700   2.541E+00
   19.800   2.494E+00
   19.900   2.448E+00
   20.000   2.402E+00
   20.100   2.357E+00
   20.200   2.311E+00
   20.300   2.265E+00
   20.400   2.219E+00
   20.500   2.173E+00
   20.600   2.127E+00
   20.700   2.081E+00
   20.800   2.036E+00
   20.900   1.990E+00
   21.000   1.945E+00
   21.100   1.900E+00
   21.200   1.856E+00
   21.300   1.812E+00
   21.400   1.769E+00
   21.500   1.727E+00
   21.600   1.686E+00
   21.700   1.645E+00
   21.800   1.606E+00
   21.900   1.567E+00
   22.000   1.530E+00
   22.100   1.493E+00
   22.200   1.456E+00
   22.300   1.421E+00
   22.400   1.386E+00
   22.500   1.351E+00
   22.600   1.318E+00
   22.700   1.284E+00
   22.800   1.251E+00
   22.900   1.219E+00
   23.000   1.187E+00
   23.100   1.155E+00
   23.200   1.124E+00
   23.300   1.094E+00
   23.400   1.064E+00
   23.500   1.035E+00
   23.600   1.006E+00
   23.700   9.783E-01
   23.800   9.511E-01
   23.900   9.247E-01
   24.000   8.990E-01
   24.100   8.742E-01
   24.200   8.501E-01
   24.300   8.269E-01
   24.400   8.044E-01
   24.500   7.827E-01
   24.600   7.618E-01
   24.700   7.416E-01
   24.800   7.222E-01
   24.900   7.035E-01
   25.000   6.855E-01
   25.100   6.681E-01
   25.200   6.514E-01
   25.300   6.353E-01
   25.400   6.198E-01
   25.500   6.049E-01
   25.600   5.905E-01
   25.700   5.767E-01
   25.800   5.633E-01
   25.900   5.505E-01
   26.000   5.381E-01
   26.100   5.261E-01
   26.200   5.146E-01
   26.300   5.035E-01
   26.400   4.928E-01
   26.500   4.824E-01
   26.600   4.724E-01
   26.700   4.628E-01
   26.800   4.535E-01
   26.900   4.444E-01
   27.000   4.357E-01
   27.100   4.273E-01
   27.200   4.192E-01
   27.300   4.113E-01
   27.400   4.036E-01
   27.500   3.962E-01
   27.600   3.890E-01
   27.700   3.821E-01
   27.800   3.753E-01
   27.900   3.688E-01
   28.000   3.624E-01
   28.100   3.563E-01
   28.200   3.503E-01
   28.300   3.445E-01
   28.400   3.388E-01
   28.500   3.333E-01
   28.600   3.280E-01
   28.700   3.228E-01
   28.800   3.177E-01
   28.900   3.128E-01
   29.000   3.080E-01
   29.100   3.033E-01
   29.200   2.987E-01
   29.300   2.943E-01
   29.400   2.900E-01
   29.500   2.857E-01
   29.600   2.816E-01
   29.700   2.776E-01
   29.800   2.737E-01
   29.900   2.698E-01
   30.000   2.661E-01
 
 Z=  29 A=  64  D1M-QRPA-Inter
 E[MeV]  fQRPA[mb/MeV]
    0.100   2.666E-05
    0.200   1.067E-04
    0.300   2.401E-04
    0.400   4.271E-04
    0.500   6.678E-04
    0.600   9.626E-04
    0.700   1.312E-03
    0.800   1.715E-03
    0.900   2.174E-03
    1.000   2.689E-03
    1.100   3.259E-03
    1.200   3.887E-03
    1.300   4.571E-03
    1.400   5.314E-03
    1.500   6.116E-03
    1.600   6.977E-03
    1.700   7.899E-03
    1.800   8.883E-03
    1.900   9.930E-03
    2.000   1.104E-02
    2.100   1.222E-02
    2.200   1.346E-02
    2.300   1.477E-02
    2.400   1.614E-02
    2.500   1.759E-02
    2.600   1.911E-02
    2.700   2.071E-02
    2.800   2.238E-02
    2.900   2.413E-02
    3.000   2.595E-02
    3.100   2.786E-02
    3.200   2.986E-02
    3.300   3.193E-02
    3.400   3.410E-02
    3.500   3.636E-02
    3.600   3.871E-02
    3.700   4.116E-02
    3.800   4.371E-02
    3.900   4.636E-02
    4.000   4.911E-02
    4.100   5.198E-02
    4.200   5.496E-02
    4.300   5.806E-02
    4.400   6.128E-02
    4.500   6.463E-02
    4.600   6.810E-02
    4.700   7.172E-02
    4.800   7.547E-02
    4.900   7.937E-02
    5.000   8.342E-02
    5.100   8.763E-02
    5.200   9.201E-02
    5.300   9.656E-02
    5.400   1.013E-01
    5.500   1.062E-01
    5.600   1.113E-01
    5.700   1.166E-01
    5.800   1.221E-01
    5.900   1.279E-01
    6.000   1.338E-01
    6.100   1.401E-01
    6.200   1.465E-01
    6.300   1.533E-01
    6.400   1.603E-01
    6.500   1.676E-01
    6.600   1.752E-01
    6.700   1.831E-01
    6.800   1.914E-01
    6.900   2.000E-01
    7.000   2.090E-01
    7.100   2.183E-01
    7.200   2.281E-01
    7.300   2.383E-01
    7.400   2.489E-01
    7.500   2.600E-01
    7.600   2.716E-01
    7.700   2.837E-01
    7.800   2.963E-01
    7.900   3.095E-01
    8.000   3.232E-01
    8.100   3.376E-01
    8.200   3.525E-01
    8.300   3.682E-01
    8.400   3.844E-01
    8.500   4.014E-01
    8.600   4.191E-01
    8.700   4.375E-01
    8.800   4.567E-01
    8.900   4.767E-01
    9.000   4.974E-01
    9.100   5.190E-01
    9.200   5.415E-01
    9.300   5.648E-01
    9.400   5.890E-01
    9.500   6.141E-01
    9.600   6.402E-01
    9.700   6.672E-01
    9.800   6.953E-01
    9.900   7.244E-01
   10.000   7.546E-01
   10.100   7.859E-01
   10.200   8.184E-01
   10.300   8.521E-01
   10.400   8.871E-01
   10.500   9.235E-01
   10.600   9.613E-01
   10.700   1.001E+00
   10.800   1.041E+00
   10.900   1.084E+00
   11.000   1.128E+00
   11.100   1.174E+00
   11.200   1.222E+00
   11.300   1.271E+00
   11.400   1.323E+00
   11.500   1.377E+00
   11.600   1.434E+00
   11.700   1.492E+00
   11.800   1.554E+00
   11.900   1.618E+00
   12.000   1.685E+00
   12.100   1.754E+00
   12.200   1.827E+00
   12.300   1.903E+00
   12.400   1.982E+00
   12.500   2.064E+00
   12.600   2.150E+00
   12.700   2.239E+00
   12.800   2.332E+00
   12.900   2.428E+00
   13.000   2.528E+00
   13.100   2.632E+00
   13.200   2.741E+00
   13.300   2.853E+00
   13.400   2.969E+00
   13.500   3.090E+00
   13.600   3.214E+00
   13.700   3.344E+00
   13.800   3.477E+00
   13.900   3.615E+00
   14.000   3.757E+00
   14.100   3.903E+00
   14.200   4.052E+00
   14.300   4.205E+00
   14.400   4.360E+00
   14.500   4.517E+00
   14.600   4.675E+00
   14.700   4.834E+00
   14.800   4.991E+00
   14.900   5.147E+00
   15.000   5.300E+00
   15.100   5.448E+00
   15.200   5.590E+00
   15.300   5.725E+00
   15.400   5.852E+00
   15.500   5.969E+00
   15.600   6.075E+00
   15.700   6.170E+00
   15.800   6.252E+00
   15.900   6.320E+00
   16.000   6.375E+00
   16.100   6.416E+00
   16.200   6.444E+00
   16.300   6.457E+00
   16.400   6.457E+00
   16.500   6.445E+00
   16.600   6.420E+00
   16.700   6.384E+00
   16.800   6.338E+00
   16.900   6.283E+00
   17.000   6.219E+00
   17.100   6.148E+00
   17.200   6.071E+00
   17.300   5.988E+00
   17.400   5.900E+00
   17.500   5.810E+00
   17.600   5.716E+00
   17.700   5.620E+00
   17.800   5.523E+00
   17.900   5.424E+00
   18.000   5.326E+00
   18.100   5.227E+00
   18.200   5.128E+00
   18.300   5.030E+00
   18.400   4.933E+00
   18.500   4.836E+00
   18.600   4.741E+00
   18.700   4.647E+00
   18.800   4.554E+00
   18.900   4.463E+00
   19.000   4.373E+00
   19.100   4.284E+00
   19.200   4.197E+00
   19.300   4.112E+00
   19.400   4.027E+00
   19.500   3.944E+00
   19.600   3.862E+00
   19.700   3.782E+00
   19.800   3.702E+00
   19.900   3.624E+00
   20.000   3.547E+00
   20.100   3.470E+00
   20.200   3.395E+00
   20.300   3.320E+00
   20.400   3.246E+00
   20.500   3.174E+00
   20.600   3.101E+00
   20.700   3.030E+00
   20.800   2.960E+00
   20.900   2.890E+00
   21.000   2.822E+00
   21.100   2.754E+00
   21.200   2.688E+00
   21.300   2.622E+00
   21.400   2.558E+00
   21.500   2.495E+00
   21.600   2.433E+00
   21.700   2.372E+00
   21.800   2.313E+00
   21.900   2.255E+00
   22.000   2.198E+00
   22.100   2.142E+00
   22.200   2.087E+00
   22.300   2.034E+00
   22.400   1.982E+00
   22.500   1.931E+00
   22.600   1.881E+00
   22.700   1.832E+00
   22.800   1.784E+00
   22.900   1.737E+00
   23.000   1.692E+00
   23.100   1.647E+00
   23.200   1.604E+00
   23.300   1.561E+00
   23.400   1.520E+00
   23.500   1.480E+00
   23.600   1.441E+00
   23.700   1.403E+00
   23.800   1.366E+00
   23.900   1.331E+00
   24.000   1.296E+00
   24.100   1.263E+00
   24.200   1.231E+00
   24.300   1.200E+00
   24.400   1.170E+00
   24.500   1.141E+00
   24.600   1.113E+00
   24.700   1.086E+00
   24.800   1.060E+00
   24.900   1.035E+00
   25.000   1.011E+00
   25.100   9.874E-01
   25.200   9.649E-01
   25.300   9.431E-01
   25.400   9.221E-01
   25.500   9.019E-01
   25.600   8.823E-01
   25.700   8.634E-01
   25.800   8.452E-01
   25.900   8.276E-01
   26.000   8.105E-01
   26.100   7.941E-01
   26.200   7.781E-01
   26.300   7.627E-01
   26.400   7.478E-01
   26.500   7.334E-01
   26.600   7.194E-01
   26.700   7.059E-01
   26.800   6.928E-01
   26.900   6.801E-01
   27.000   6.677E-01
   27.100   6.558E-01
   27.200   6.442E-01
   27.300   6.329E-01
   27.400   6.220E-01
   27.500   6.114E-01
   27.600   6.011E-01
   27.700   5.911E-01
   27.800   5.813E-01
   27.900   5.719E-01
   28.000   5.627E-01
   28.100   5.537E-01
   28.200   5.450E-01
   28.300   5.365E-01
   28.400   5.282E-01
   28.500   5.201E-01
   28.600   5.123E-01
   28.700   5.046E-01
   28.800   4.972E-01
   28.900   4.899E-01
   29.000   4.828E-01
   29.100   4.758E-01
   29.200   4.691E-01
   29.300   4.625E-01
   29.400   4.560E-01
   29.500   4.497E-01
   29.600   4.436E-01
   29.700   4.375E-01
   29.800   4.317E-01
   29.900   4.259E-01
   30.000   4.203E-01
 
 Z=  29 A=  65  D1M-QRPA-Inter
 E[MeV]  fQRPA[mb/MeV]
    0.100   2.669E-05
    0.200   1.068E-04
    0.300   2.404E-04
    0.400   4.277E-04
    0.500   6.688E-04
    0.600   9.640E-04
    0.700   1.314E-03
    0.800   1.718E-03
    0.900   2.178E-03
    1.000   2.693E-03
    1.100   3.265E-03
    1.200   3.894E-03
    1.300   4.580E-03
    1.400   5.324E-03
    1.500   6.128E-03
    1.600   6.992E-03
    1.700   7.917E-03
    1.800   8.903E-03
    1.900   9.953E-03
    2.000   1.107E-02
    2.100   1.225E-02
    2.200   1.349E-02
    2.300   1.481E-02
    2.400   1.619E-02
    2.500   1.764E-02
    2.600   1.917E-02
    2.700   2.077E-02
    2.800   2.245E-02
    2.900   2.420E-02
    3.000   2.604E-02
    3.100   2.795E-02
    3.200   2.995E-02
    3.300   3.204E-02
    3.400   3.422E-02
    3.500   3.648E-02
    3.600   3.884E-02
    3.700   4.130E-02
    3.800   4.385E-02
    3.900   4.651E-02
    4.000   4.928E-02
    4.100   5.216E-02
    4.200   5.515E-02
    4.300   5.826E-02
    4.400   6.149E-02
    4.500   6.485E-02
    4.600   6.834E-02
    4.700   7.197E-02
    4.800   7.575E-02
    4.900   7.967E-02
    5.000   8.375E-02
    5.100   8.799E-02
    5.200   9.240E-02
    5.300   9.698E-02
    5.400   1.017E-01
    5.500   1.067E-01
    5.600   1.119E-01
    5.700   1.172E-01
    5.800   1.228E-01
    5.900   1.286E-01
    6.000   1.347E-01
    6.100   1.410E-01
    6.200   1.475E-01
    6.300   1.543E-01
    6.400   1.614E-01
    6.500   1.689E-01
    6.600   1.766E-01
    6.700   1.846E-01
    6.800   1.930E-01
    6.900   2.017E-01
    7.000   2.109E-01
    7.100   2.204E-01
    7.200   2.303E-01
    7.300   2.406E-01
    7.400   2.514E-01
    7.500   2.626E-01
    7.600   2.743E-01
    7.700   2.866E-01
    7.800   2.993E-01
    7.900   3.126E-01
    8.000   3.264E-01
    8.100   3.408E-01
    8.200   3.558E-01
    8.300   3.714E-01
    8.400   3.876E-01
    8.500   4.045E-01
    8.600   4.220E-01
    8.700   4.402E-01
    8.800   4.592E-01
    8.900   4.788E-01
    9.000   4.992E-01
    9.100   5.203E-01
    9.200   5.422E-01
    9.300   5.649E-01
    9.400   5.885E-01
    9.500   6.129E-01
    9.600   6.382E-01
    9.700   6.644E-01
    9.800   6.917E-01
    9.900   7.200E-01
   10.000   7.493E-01
   10.100   7.798E-01
   10.200   8.115E-01
   10.300   8.445E-01
   10.400   8.789E-01
   10.500   9.146E-01
   10.600   9.518E-01
   10.700   9.905E-01
   10.800   1.031E+00
   10.900   1.073E+00
   11.000   1.117E+00
   11.100   1.162E+00
   11.200   1.210E+00
   11.300   1.260E+00
   11.400   1.311E+00
   11.500   1.365E+00
   11.600   1.421E+00
   11.700   1.480E+00
   11.800   1.541E+00
   11.900   1.604E+00
   12.000   1.670E+00
   12.100   1.738E+00
   12.200   1.810E+00
   12.300   1.884E+00
   12.400   1.961E+00
   12.500   2.041E+00
   12.600   2.124E+00
   12.700   2.211E+00
   12.800   2.301E+00
   12.900   2.394E+00
   13.000   2.490E+00
   13.100   2.590E+00
   13.200   2.694E+00
   13.300   2.801E+00
   13.400   2.912E+00
   13.500   3.027E+00
   13.600   3.145E+00
   13.700   3.266E+00
   13.800   3.391E+00
   13.900   3.518E+00
   14.000   3.648E+00
   14.100   3.780E+00
   14.200   3.913E+00
   14.300   4.047E+00
   14.400   4.181E+00
   14.500   4.313E+00
   14.600   4.444E+00
   14.700   4.571E+00
   14.800   4.694E+00
   14.900   4.811E+00
   15.000   4.921E+00
   15.100   5.024E+00
   15.200   5.118E+00
   15.300   5.202E+00
   15.400   5.275E+00
   15.500   5.338E+00
   15.600   5.389E+00
   15.700   5.429E+00
   15.800   5.457E+00
   15.900   5.474E+00
   16.000   5.480E+00
   16.100   5.476E+00
   16.200   5.463E+00
   16.300   5.441E+00
   16.400   5.411E+00
   16.500   5.374E+00
   16.600   5.332E+00
   16.700   5.284E+00
   16.800   5.232E+00
   16.900   5.176E+00
   17.000   5.117E+00
   17.100   5.056E+00
   17.200   4.993E+00
   17.300   4.928E+00
   17.400   4.862E+00
   17.500   4.794E+00
   17.600   4.727E+00
   17.700   4.658E+00
   17.800   4.588E+00
   17.900   4.518E+00
   18.000   4.447E+00
   18.100   4.376E+00
   18.200   4.303E+00
   18.300   4.230E+00
   18.400   4.156E+00
   18.500   4.081E+00
   18.600   4.005E+00
   18.700   3.928E+00
   18.800   3.850E+00
   18.900   3.772E+00
   19.000   3.694E+00
   19.100   3.615E+00
   19.200   3.536E+00
   19.300   3.457E+00
   19.400   3.379E+00
   19.500   3.302E+00
   19.600   3.225E+00
   19.700   3.149E+00
   19.800   3.075E+00
   19.900   3.002E+00
   20.000   2.930E+00
   20.100   2.860E+00
   20.200   2.791E+00
   20.300   2.724E+00
   20.400   2.658E+00
   20.500   2.593E+00
   20.600   2.530E+00
   20.700   2.469E+00
   20.800   2.408E+00
   20.900   2.349E+00
   21.000   2.291E+00
   21.100   2.234E+00
   21.200   2.178E+00
   21.300   2.124E+00
   21.400   2.070E+00
   21.500   2.017E+00
   21.600   1.965E+00
   21.700   1.914E+00
   21.800   1.864E+00
   21.900   1.815E+00
   22.000   1.767E+00
   22.100   1.720E+00
   22.200   1.674E+00
   22.300   1.629E+00
   22.400   1.586E+00
   22.500   1.543E+00
   22.600   1.502E+00
   22.700   1.462E+00
   22.800   1.423E+00
   22.900   1.386E+00
   23.000   1.349E+00
   23.100   1.314E+00
   23.200   1.280E+00
   23.300   1.247E+00
   23.400   1.215E+00
   23.500   1.184E+00
   23.600   1.155E+00
   23.700   1.126E+00
   23.800   1.098E+00
   23.900   1.072E+00
   24.000   1.046E+00
   24.100   1.021E+00
   24.200   9.973E-01
   24.300   9.743E-01
   24.400   9.520E-01
   24.500   9.306E-01
   24.600   9.099E-01
   24.700   8.899E-01
   24.800   8.706E-01
   24.900   8.520E-01
   25.000   8.340E-01
   25.100   8.166E-01
   25.200   7.997E-01
   25.300   7.835E-01
   25.400   7.677E-01
   25.500   7.525E-01
   25.600   7.378E-01
   25.700   7.235E-01
   25.800   7.097E-01
   25.900   6.963E-01
   26.000   6.833E-01
   26.100   6.707E-01
   26.200   6.584E-01
   26.300   6.466E-01
   26.400   6.351E-01
   26.500   6.239E-01
   26.600   6.131E-01
   26.700   6.025E-01
   26.800   5.923E-01
   26.900   5.823E-01
   27.000   5.726E-01
   27.100   5.632E-01
   27.200   5.540E-01
   27.300   5.451E-01
   27.400   5.364E-01
   27.500   5.280E-01
   27.600   5.197E-01
   27.700   5.117E-01
   27.800   5.039E-01
   27.900   4.962E-01
   28.000   4.888E-01
   28.100   4.815E-01
   28.200   4.745E-01
   28.300   4.676E-01
   28.400   4.608E-01
   28.500   4.542E-01
   28.600   4.478E-01
   28.700   4.415E-01
   28.800   4.354E-01
   28.900   4.294E-01
   29.000   4.235E-01
   29.100   4.178E-01
   29.200   4.122E-01
   29.300   4.067E-01
   29.400   4.013E-01
   29.500   3.961E-01
   29.600   3.910E-01
   29.700   3.859E-01
   29.800   3.810E-01
   29.900   3.762E-01
   30.000   3.715E-01
 
