 Z=  30 A=  64  D1M-QRPA
   E[MeV]   fQRPA[mb/MeV]
    0.100   1.388E-05
    0.200   5.554E-05
    0.300   1.250E-04
    0.400   2.224E-04
    0.500   3.477E-04
    0.600   5.012E-04
    0.700   6.828E-04
    0.800   8.930E-04
    0.900   1.132E-03
    1.000   1.399E-03
    1.100   1.696E-03
    1.200   2.022E-03
    1.300   2.378E-03
    1.400   2.764E-03
    1.500   3.181E-03
    1.600   3.628E-03
    1.700   4.107E-03
    1.800   4.618E-03
    1.900   5.161E-03
    2.000   5.737E-03
    2.100   6.347E-03
    2.200   6.991E-03
    2.300   7.669E-03
    2.400   8.383E-03
    2.500   9.134E-03
    2.600   9.922E-03
    2.700   1.075E-02
    2.800   1.161E-02
    2.900   1.252E-02
    3.000   1.346E-02
    3.100   1.445E-02
    3.200   1.548E-02
    3.300   1.655E-02
    3.400   1.767E-02
    3.500   1.884E-02
    3.600   2.006E-02
    3.700   2.132E-02
    3.800   2.264E-02
    3.900   2.400E-02
    4.000   2.542E-02
    4.100   2.690E-02
    4.200   2.844E-02
    4.300   3.003E-02
    4.400   3.168E-02
    4.500   3.340E-02
    4.600   3.519E-02
    4.700   3.704E-02
    4.800   3.896E-02
    4.900   4.095E-02
    5.000   4.301E-02
    5.100   4.516E-02
    5.200   4.738E-02
    5.300   4.968E-02
    5.400   5.207E-02
    5.500   5.455E-02
    5.600   5.712E-02
    5.700   5.979E-02
    5.800   6.256E-02
    5.900   6.543E-02
    6.000   6.841E-02
    6.100   7.151E-02
    6.200   7.473E-02
    6.300   7.807E-02
    6.400   8.154E-02
    6.500   8.514E-02
    6.600   8.890E-02
    6.700   9.280E-02
    6.800   9.686E-02
    6.900   1.011E-01
    7.000   1.055E-01
    7.100   1.101E-01
    7.200   1.148E-01
    7.300   1.198E-01
    7.400   1.250E-01
    7.500   1.304E-01
    7.600   1.361E-01
    7.700   1.420E-01
    7.800   1.481E-01
    7.900   1.545E-01
    8.000   1.612E-01
    8.100   1.682E-01
    8.200   1.755E-01
    8.300   1.832E-01
    8.400   1.911E-01
    8.500   1.995E-01
    8.600   2.082E-01
    8.700   2.173E-01
    8.800   2.268E-01
    8.900   2.367E-01
    9.000   2.471E-01
    9.100   2.579E-01
    9.200   2.692E-01
    9.300   2.810E-01
    9.400   2.934E-01
    9.500   3.063E-01
    9.600   3.197E-01
    9.700   3.337E-01
    9.800   3.482E-01
    9.900   3.634E-01
   10.000   3.791E-01
   10.100   3.955E-01
   10.200   4.125E-01
   10.300   4.300E-01
   10.400   4.482E-01
   10.500   4.670E-01
   10.600   4.864E-01
   10.700   5.065E-01
   10.800   5.271E-01
   10.900   5.484E-01
   11.000   5.704E-01
   11.100   5.930E-01
   11.200   6.164E-01
   11.300   6.406E-01
   11.400   6.656E-01
   11.500   6.915E-01
   11.600   7.184E-01
   11.700   7.464E-01
   11.800   7.755E-01
   11.900   8.060E-01
   12.000   8.378E-01
   12.100   8.711E-01
   12.200   9.061E-01
   12.300   9.428E-01
   12.400   9.815E-01
   12.500   1.022E+00
   12.600   1.065E+00
   12.700   1.110E+00
   12.800   1.158E+00
   12.900   1.208E+00
   13.000   1.261E+00
   13.100   1.316E+00
   13.200   1.375E+00
   13.300   1.436E+00
   13.400   1.501E+00
   13.500   1.569E+00
   13.600   1.640E+00
   13.700   1.714E+00
   13.800   1.792E+00
   13.900   1.873E+00
   14.000   1.957E+00
   14.100   2.045E+00
   14.200   2.135E+00
   14.300   2.228E+00
   14.400   2.324E+00
   14.500   2.422E+00
   14.600   2.522E+00
   14.700   2.623E+00
   14.800   2.725E+00
   14.900   2.828E+00
   15.000   2.931E+00
   15.100   3.032E+00
   15.200   3.132E+00
   15.300   3.230E+00
   15.400   3.325E+00
   15.500   3.416E+00
   15.600   3.503E+00
   15.700   3.584E+00
   15.800   3.661E+00
   15.900   3.732E+00
   16.000   3.796E+00
   16.100   3.855E+00
   16.200   3.907E+00
   16.300   3.952E+00
   16.400   3.991E+00
   16.500   4.023E+00
   16.600   4.050E+00
   16.700   4.070E+00
   16.800   4.083E+00
   16.900   4.091E+00
   17.000   4.093E+00
   17.100   4.089E+00
   17.200   4.080E+00
   17.300   4.065E+00
   17.400   4.045E+00
   17.500   4.020E+00
   17.600   3.990E+00
   17.700   3.956E+00
   17.800   3.918E+00
   17.900   3.877E+00
   18.000   3.833E+00
   18.100   3.786E+00
   18.200   3.737E+00
   18.300   3.686E+00
   18.400   3.634E+00
   18.500   3.582E+00
   18.600   3.528E+00
   18.700   3.475E+00
   18.800   3.421E+00
   18.900   3.368E+00
   19.000   3.315E+00
   19.100   3.262E+00
   19.200   3.210E+00
   19.300   3.159E+00
   19.400   3.108E+00
   19.500   3.057E+00
   19.600   3.007E+00
   19.700   2.958E+00
   19.800   2.908E+00
   19.900   2.859E+00
   20.000   2.810E+00
   20.100   2.761E+00
   20.200   2.712E+00
   20.300   2.663E+00
   20.400   2.613E+00
   20.500   2.563E+00
   20.600   2.513E+00
   20.700   2.462E+00
   20.800   2.411E+00
   20.900   2.360E+00
   21.000   2.308E+00
   21.100   2.257E+00
   21.200   2.206E+00
   21.300   2.155E+00
   21.400   2.104E+00
   21.500   2.054E+00
   21.600   2.004E+00
   21.700   1.955E+00
   21.800   1.907E+00
   21.900   1.859E+00
   22.000   1.812E+00
   22.100   1.766E+00
   22.200   1.720E+00
   22.300   1.675E+00
   22.400   1.632E+00
   22.500   1.589E+00
   22.600   1.546E+00
   22.700   1.505E+00
   22.800   1.464E+00
   22.900   1.424E+00
   23.000   1.385E+00
   23.100   1.347E+00
   23.200   1.309E+00
   23.300   1.272E+00
   23.400   1.236E+00
   23.500   1.201E+00
   23.600   1.167E+00
   23.700   1.133E+00
   23.800   1.101E+00
   23.900   1.070E+00
   24.000   1.039E+00
   24.100   1.009E+00
   24.200   9.807E-01
   24.300   9.530E-01
   24.400   9.262E-01
   24.500   9.004E-01
   24.600   8.754E-01
   24.700   8.514E-01
   24.800   8.282E-01
   24.900   8.058E-01
   25.000   7.843E-01
   25.100   7.635E-01
   25.200   7.434E-01
   25.300   7.241E-01
   25.400   7.055E-01
   25.500   6.876E-01
   25.600   6.704E-01
   25.700   6.537E-01
   25.800   6.377E-01
   25.900   6.223E-01
   26.000   6.074E-01
   26.100   5.931E-01
   26.200   5.793E-01
   26.300   5.660E-01
   26.400   5.532E-01
   26.500   5.408E-01
   26.600   5.289E-01
   26.700   5.174E-01
   26.800   5.064E-01
   26.900   4.957E-01
   27.000   4.853E-01
   27.100   4.754E-01
   27.200   4.657E-01
   27.300   4.564E-01
   27.400   4.474E-01
   27.500   4.387E-01
   27.600   4.303E-01
   27.700   4.222E-01
   27.800   4.143E-01
   27.900   4.066E-01
   28.000   3.992E-01
   28.100   3.921E-01
   28.200   3.851E-01
   28.300   3.783E-01
   28.400   3.718E-01
   28.500   3.654E-01
   28.600   3.592E-01
   28.700   3.532E-01
   28.800   3.474E-01
   28.900   3.417E-01
   29.000   3.362E-01
   29.100   3.308E-01
   29.200   3.256E-01
   29.300   3.205E-01
   29.400   3.156E-01
   29.500   3.108E-01
   29.600   3.061E-01
   29.700   3.015E-01
   29.800   2.970E-01
   29.900   2.926E-01
   30.000   2.884E-01
 
 Z=  30 A=  65  D1M-QRPA-Inter
 E[MeV]  fQRPA[mb/MeV]
    0.100   1.809E-05
    0.200   7.238E-05
    0.300   1.629E-04
    0.400   2.898E-04
    0.500   4.532E-04
    0.600   6.531E-04
    0.700   8.900E-04
    0.800   1.164E-03
    0.900   1.475E-03
    1.000   1.824E-03
    1.100   2.211E-03
    1.200   2.636E-03
    1.300   3.100E-03
    1.400   3.604E-03
    1.500   4.147E-03
    1.600   4.731E-03
    1.700   5.355E-03
    1.800   6.021E-03
    1.900   6.730E-03
    2.000   7.481E-03
    2.100   8.276E-03
    2.200   9.116E-03
    2.300   1.000E-02
    2.400   1.093E-02
    2.500   1.191E-02
    2.600   1.294E-02
    2.700   1.401E-02
    2.800   1.514E-02
    2.900   1.631E-02
    3.000   1.754E-02
    3.100   1.883E-02
    3.200   2.017E-02
    3.300   2.156E-02
    3.400   2.301E-02
    3.500   2.453E-02
    3.600   2.610E-02
    3.700   2.774E-02
    3.800   2.944E-02
    3.900   3.120E-02
    4.000   3.304E-02
    4.100   3.495E-02
    4.200   3.693E-02
    4.300   3.898E-02
    4.400   4.112E-02
    4.500   4.333E-02
    4.600   4.563E-02
    4.700   4.801E-02
    4.800   5.049E-02
    4.900   5.306E-02
    5.000   5.572E-02
    5.100   5.848E-02
    5.200   6.135E-02
    5.300   6.432E-02
    5.400   6.741E-02
    5.500   7.061E-02
    5.600   7.394E-02
    5.700   7.738E-02
    5.800   8.096E-02
    5.900   8.468E-02
    6.000   8.854E-02
    6.100   9.255E-02
    6.200   9.671E-02
    6.300   1.010E-01
    6.400   1.055E-01
    6.500   1.102E-01
    6.600   1.151E-01
    6.700   1.201E-01
    6.800   1.254E-01
    6.900   1.309E-01
    7.000   1.366E-01
    7.100   1.425E-01
    7.200   1.487E-01
    7.300   1.551E-01
    7.400   1.618E-01
    7.500   1.688E-01
    7.600   1.761E-01
    7.700   1.837E-01
    7.800   1.916E-01
    7.900   1.998E-01
    8.000   2.084E-01
    8.100   2.174E-01
    8.200   2.267E-01
    8.300   2.365E-01
    8.400   2.467E-01
    8.500   2.573E-01
    8.600   2.683E-01
    8.700   2.799E-01
    8.800   2.919E-01
    8.900   3.045E-01
    9.000   3.176E-01
    9.100   3.312E-01
    9.200   3.455E-01
    9.300   3.603E-01
    9.400   3.758E-01
    9.500   3.920E-01
    9.600   4.088E-01
    9.700   4.263E-01
    9.800   4.445E-01
    9.900   4.634E-01
   10.000   4.831E-01
   10.100   5.036E-01
   10.200   5.248E-01
   10.300   5.469E-01
   10.400   5.698E-01
   10.500   5.934E-01
   10.600   6.180E-01
   10.700   6.434E-01
   10.800   6.696E-01
   10.900   6.968E-01
   11.000   7.249E-01
   11.100   7.539E-01
   11.200   7.840E-01
   11.300   8.151E-01
   11.400   8.472E-01
   11.500   8.806E-01
   11.600   9.152E-01
   11.700   9.512E-01
   11.800   9.886E-01
   11.900   1.028E+00
   12.000   1.068E+00
   12.100   1.110E+00
   12.200   1.155E+00
   12.300   1.201E+00
   12.400   1.249E+00
   12.500   1.300E+00
   12.600   1.353E+00
   12.700   1.409E+00
   12.800   1.468E+00
   12.900   1.529E+00
   13.000   1.594E+00
   13.100   1.661E+00
   13.200   1.732E+00
   13.300   1.807E+00
   13.400   1.885E+00
   13.500   1.966E+00
   13.600   2.051E+00
   13.700   2.140E+00
   13.800   2.233E+00
   13.900   2.329E+00
   14.000   2.429E+00
   14.100   2.533E+00
   14.200   2.639E+00
   14.300   2.748E+00
   14.400   2.860E+00
   14.500   2.974E+00
   14.600   3.090E+00
   14.700   3.207E+00
   14.800   3.324E+00
   14.900   3.441E+00
   15.000   3.557E+00
   15.100   3.670E+00
   15.200   3.782E+00
   15.300   3.889E+00
   15.400   3.993E+00
   15.500   4.092E+00
   15.600   4.185E+00
   15.700   4.272E+00
   15.800   4.352E+00
   15.900   4.426E+00
   16.000   4.493E+00
   16.100   4.552E+00
   16.200   4.605E+00
   16.300   4.650E+00
   16.400   4.688E+00
   16.500   4.719E+00
   16.600   4.744E+00
   16.700   4.762E+00
   16.800   4.773E+00
   16.900   4.779E+00
   17.000   4.778E+00
   17.100   4.772E+00
   17.200   4.760E+00
   17.300   4.742E+00
   17.400   4.720E+00
   17.500   4.692E+00
   17.600   4.659E+00
   17.700   4.622E+00
   17.800   4.580E+00
   17.900   4.535E+00
   18.000   4.485E+00
   18.100   4.433E+00
   18.200   4.377E+00
   18.300   4.318E+00
   18.400   4.257E+00
   18.500   4.194E+00
   18.600   4.129E+00
   18.700   4.063E+00
   18.800   3.996E+00
   18.900   3.928E+00
   19.000   3.860E+00
   19.100   3.792E+00
   19.200   3.723E+00
   19.300   3.655E+00
   19.400   3.587E+00
   19.500   3.520E+00
   19.600   3.453E+00
   19.700   3.388E+00
   19.800   3.323E+00
   19.900   3.258E+00
   20.000   3.195E+00
   20.100   3.132E+00
   20.200   3.069E+00
   20.300   3.007E+00
   20.400   2.946E+00
   20.500   2.885E+00
   20.600   2.824E+00
   20.700   2.764E+00
   20.800   2.704E+00
   20.900   2.644E+00
   21.000   2.585E+00
   21.100   2.526E+00
   21.200   2.467E+00
   21.300   2.409E+00
   21.400   2.351E+00
   21.500   2.294E+00
   21.600   2.237E+00
   21.700   2.181E+00
   21.800   2.125E+00
   21.900   2.071E+00
   22.000   2.017E+00
   22.100   1.964E+00
   22.200   1.911E+00
   22.300   1.860E+00
   22.400   1.810E+00
   22.500   1.761E+00
   22.600   1.712E+00
   22.700   1.665E+00
   22.800   1.619E+00
   22.900   1.574E+00
   23.000   1.530E+00
   23.100   1.487E+00
   23.200   1.446E+00
   23.300   1.405E+00
   23.400   1.366E+00
   23.500   1.327E+00
   23.600   1.290E+00
   23.700   1.254E+00
   23.800   1.219E+00
   23.900   1.186E+00
   24.000   1.153E+00
   24.100   1.122E+00
   24.200   1.091E+00
   24.300   1.062E+00
   24.400   1.034E+00
   24.500   1.007E+00
   24.600   9.804E-01
   24.700   9.551E-01
   24.800   9.307E-01
   24.900   9.072E-01
   25.000   8.845E-01
   25.100   8.626E-01
   25.200   8.416E-01
   25.300   8.213E-01
   25.400   8.017E-01
   25.500   7.828E-01
   25.600   7.646E-01
   25.700   7.470E-01
   25.800   7.300E-01
   25.900   7.137E-01
   26.000   6.979E-01
   26.100   6.826E-01
   26.200   6.679E-01
   26.300   6.537E-01
   26.400   6.400E-01
   26.500   6.267E-01
   26.600   6.139E-01
   26.700   6.015E-01
   26.800   5.895E-01
   26.900   5.779E-01
   27.000   5.667E-01
   27.100   5.558E-01
   27.200   5.453E-01
   27.300   5.351E-01
   27.400   5.252E-01
   27.500   5.157E-01
   27.600   5.064E-01
   27.700   4.974E-01
   27.800   4.886E-01
   27.900   4.801E-01
   28.000   4.719E-01
   28.100   4.639E-01
   28.200   4.561E-01
   28.300   4.485E-01
   28.400   4.412E-01
   28.500   4.340E-01
   28.600   4.271E-01
   28.700   4.203E-01
   28.800   4.137E-01
   28.900   4.073E-01
   29.000   4.010E-01
   29.100   3.949E-01
   29.200   3.890E-01
   29.300   3.832E-01
   29.400   3.775E-01
   29.500   3.720E-01
   29.600   3.666E-01
   29.700   3.614E-01
   29.800   3.563E-01
   29.900   3.513E-01
   30.000   3.464E-01
 
 Z=  30 A=  66  D1M-QRPA
   E[MeV]   fQRPA[mb/MeV]
    0.100   2.307E-05
    0.200   9.229E-05
    0.300   2.077E-04
    0.400   3.695E-04
    0.500   5.779E-04
    0.600   8.329E-04
    0.700   1.135E-03
    0.800   1.484E-03
    0.900   1.881E-03
    1.000   2.326E-03
    1.100   2.820E-03
    1.200   3.362E-03
    1.300   3.955E-03
    1.400   4.597E-03
    1.500   5.290E-03
    1.600   6.035E-03
    1.700   6.832E-03
    1.800   7.682E-03
    1.900   8.586E-03
    2.000   9.545E-03
    2.100   1.056E-02
    2.200   1.163E-02
    2.300   1.276E-02
    2.400   1.395E-02
    2.500   1.519E-02
    2.600   1.650E-02
    2.700   1.787E-02
    2.800   1.931E-02
    2.900   2.081E-02
    3.000   2.237E-02
    3.100   2.400E-02
    3.200   2.570E-02
    3.300   2.748E-02
    3.400   2.932E-02
    3.500   3.124E-02
    3.600   3.323E-02
    3.700   3.530E-02
    3.800   3.745E-02
    3.900   3.969E-02
    4.000   4.201E-02
    4.100   4.442E-02
    4.200   4.692E-02
    4.300   4.951E-02
    4.400   5.221E-02
    4.500   5.500E-02
    4.600   5.790E-02
    4.700   6.091E-02
    4.800   6.403E-02
    4.900   6.726E-02
    5.000   7.062E-02
    5.100   7.411E-02
    5.200   7.773E-02
    5.300   8.149E-02
    5.400   8.538E-02
    5.500   8.943E-02
    5.600   9.363E-02
    5.700   9.799E-02
    5.800   1.025E-01
    5.900   1.072E-01
    6.000   1.121E-01
    6.100   1.172E-01
    6.200   1.225E-01
    6.300   1.280E-01
    6.400   1.337E-01
    6.500   1.396E-01
    6.600   1.458E-01
    6.700   1.522E-01
    6.800   1.588E-01
    6.900   1.658E-01
    7.000   1.730E-01
    7.100   1.805E-01
    7.200   1.883E-01
    7.300   1.965E-01
    7.400   2.049E-01
    7.500   2.137E-01
    7.600   2.229E-01
    7.700   2.325E-01
    7.800   2.424E-01
    7.900   2.528E-01
    8.000   2.636E-01
    8.100   2.749E-01
    8.200   2.866E-01
    8.300   2.988E-01
    8.400   3.115E-01
    8.500   3.247E-01
    8.600   3.385E-01
    8.700   3.528E-01
    8.800   3.677E-01
    8.900   3.833E-01
    9.000   3.994E-01
    9.100   4.163E-01
    9.200   4.338E-01
    9.300   4.521E-01
    9.400   4.711E-01
    9.500   4.908E-01
    9.600   5.114E-01
    9.700   5.328E-01
    9.800   5.551E-01
    9.900   5.782E-01
   10.000   6.023E-01
   10.100   6.274E-01
   10.200   6.534E-01
   10.300   6.805E-01
   10.400   7.087E-01
   10.500   7.379E-01
   10.600   7.682E-01
   10.700   7.997E-01
   10.800   8.324E-01
   10.900   8.662E-01
   11.000   9.014E-01
   11.100   9.378E-01
   11.200   9.755E-01
   11.300   1.015E+00
   11.400   1.055E+00
   11.500   1.097E+00
   11.600   1.141E+00
   11.700   1.186E+00
   11.800   1.233E+00
   11.900   1.282E+00
   12.000   1.332E+00
   12.100   1.385E+00
   12.200   1.440E+00
   12.300   1.497E+00
   12.400   1.556E+00
   12.500   1.618E+00
   12.600   1.683E+00
   12.700   1.750E+00
   12.800   1.821E+00
   12.900   1.894E+00
   13.000   1.971E+00
   13.100   2.052E+00
   13.200   2.136E+00
   13.300   2.224E+00
   13.400   2.315E+00
   13.500   2.411E+00
   13.600   2.511E+00
   13.700   2.615E+00
   13.800   2.723E+00
   13.900   2.834E+00
   14.000   2.950E+00
   14.100   3.069E+00
   14.200   3.192E+00
   14.300   3.317E+00
   14.400   3.445E+00
   14.500   3.574E+00
   14.600   3.705E+00
   14.700   3.836E+00
   14.800   3.967E+00
   14.900   4.096E+00
   15.000   4.223E+00
   15.100   4.347E+00
   15.200   4.467E+00
   15.300   4.583E+00
   15.400   4.692E+00
   15.500   4.796E+00
   15.600   4.892E+00
   15.700   4.981E+00
   15.800   5.063E+00
   15.900   5.137E+00
   16.000   5.203E+00
   16.100   5.261E+00
   16.200   5.311E+00
   16.300   5.353E+00
   16.400   5.388E+00
   16.500   5.416E+00
   16.600   5.437E+00
   16.700   5.452E+00
   16.800   5.460E+00
   16.900   5.462E+00
   17.000   5.458E+00
   17.100   5.448E+00
   17.200   5.433E+00
   17.300   5.413E+00
   17.400   5.388E+00
   17.500   5.358E+00
   17.600   5.323E+00
   17.700   5.283E+00
   17.800   5.239E+00
   17.900   5.190E+00
   18.000   5.136E+00
   18.100   5.078E+00
   18.200   5.016E+00
   18.300   4.950E+00
   18.400   4.879E+00
   18.500   4.806E+00
   18.600   4.729E+00
   18.700   4.649E+00
   18.800   4.567E+00
   18.900   4.483E+00
   19.000   4.398E+00
   19.100   4.312E+00
   19.200   4.225E+00
   19.300   4.138E+00
   19.400   4.051E+00
   19.500   3.965E+00
   19.600   3.880E+00
   19.700   3.797E+00
   19.800   3.714E+00
   19.900   3.633E+00
   20.000   3.553E+00
   20.100   3.475E+00
   20.200   3.398E+00
   20.300   3.323E+00
   20.400   3.250E+00
   20.500   3.177E+00
   20.600   3.106E+00
   20.700   3.036E+00
   20.800   2.967E+00
   20.900   2.899E+00
   21.000   2.832E+00
   21.100   2.766E+00
   21.200   2.700E+00
   21.300   2.635E+00
   21.400   2.570E+00
   21.500   2.506E+00
   21.600   2.443E+00
   21.700   2.380E+00
   21.800   2.318E+00
   21.900   2.257E+00
   22.000   2.197E+00
   22.100   2.137E+00
   22.200   2.078E+00
   22.300   2.021E+00
   22.400   1.964E+00
   22.500   1.909E+00
   22.600   1.855E+00
   22.700   1.803E+00
   22.800   1.752E+00
   22.900   1.702E+00
   23.000   1.654E+00
   23.100   1.607E+00
   23.200   1.562E+00
   23.300   1.518E+00
   23.400   1.476E+00
   23.500   1.435E+00
   23.600   1.396E+00
   23.700   1.358E+00
   23.800   1.321E+00
   23.900   1.286E+00
   24.000   1.252E+00
   24.100   1.220E+00
   24.200   1.188E+00
   24.300   1.158E+00
   24.400   1.129E+00
   24.500   1.101E+00
   24.600   1.074E+00
   24.700   1.048E+00
   24.800   1.023E+00
   24.900   9.992E-01
   25.000   9.760E-01
   25.100   9.537E-01
   25.200   9.321E-01
   25.300   9.113E-01
   25.400   8.913E-01
   25.500   8.719E-01
   25.600   8.532E-01
   25.700   8.352E-01
   25.800   8.177E-01
   25.900   8.008E-01
   26.000   7.845E-01
   26.100   7.688E-01
   26.200   7.535E-01
   26.300   7.388E-01
   26.400   7.245E-01
   26.500   7.106E-01
   26.600   6.972E-01
   26.700   6.842E-01
   26.800   6.715E-01
   26.900   6.593E-01
   27.000   6.474E-01
   27.100   6.359E-01
   27.200   6.247E-01
   27.300   6.138E-01
   27.400   6.033E-01
   27.500   5.930E-01
   27.600   5.830E-01
   27.700   5.733E-01
   27.800   5.639E-01
   27.900   5.547E-01
   28.000   5.458E-01
   28.100   5.371E-01
   28.200   5.286E-01
   28.300   5.203E-01
   28.400   5.123E-01
   28.500   5.044E-01
   28.600   4.968E-01
   28.700   4.893E-01
   28.800   4.820E-01
   28.900   4.749E-01
   29.000   4.680E-01
   29.100   4.613E-01
   29.200   4.547E-01
   29.300   4.482E-01
   29.400   4.419E-01
   29.500   4.358E-01
   29.600   4.297E-01
   29.700   4.239E-01
   29.800   4.181E-01
   29.900   4.125E-01
   30.000   4.070E-01
 
 Z=  30 A=  76  D1M-QRPA
   E[MeV]   fQRPA[mb/MeV]
    0.100   4.491E-05
    0.200   1.797E-04
    0.300   4.045E-04
    0.400   7.196E-04
    0.500   1.125E-03
    0.600   1.622E-03
    0.700   2.211E-03
    0.800   2.891E-03
    0.900   3.665E-03
    1.000   4.533E-03
    1.100   5.496E-03
    1.200   6.555E-03
    1.300   7.711E-03
    1.400   8.966E-03
    1.500   1.032E-02
    1.600   1.178E-02
    1.700   1.334E-02
    1.800   1.500E-02
    1.900   1.677E-02
    2.000   1.865E-02
    2.100   2.064E-02
    2.200   2.275E-02
    2.300   2.497E-02
    2.400   2.731E-02
    2.500   2.977E-02
    2.600   3.236E-02
    2.700   3.507E-02
    2.800   3.792E-02
    2.900   4.090E-02
    3.000   4.402E-02
    3.100   4.728E-02
    3.200   5.069E-02
    3.300   5.425E-02
    3.400   5.797E-02
    3.500   6.185E-02
    3.600   6.590E-02
    3.700   7.013E-02
    3.800   7.453E-02
    3.900   7.913E-02
    4.000   8.391E-02
    4.100   8.890E-02
    4.200   9.409E-02
    4.300   9.950E-02
    4.400   1.051E-01
    4.500   1.110E-01
    4.600   1.171E-01
    4.700   1.235E-01
    4.800   1.301E-01
    4.900   1.370E-01
    5.000   1.442E-01
    5.100   1.516E-01
    5.200   1.594E-01
    5.300   1.675E-01
    5.400   1.759E-01
    5.500   1.847E-01
    5.600   1.938E-01
    5.700   2.033E-01
    5.800   2.132E-01
    5.900   2.234E-01
    6.000   2.341E-01
    6.100   2.452E-01
    6.200   2.568E-01
    6.300   2.688E-01
    6.400   2.813E-01
    6.500   2.942E-01
    6.600   3.077E-01
    6.700   3.217E-01
    6.800   3.363E-01
    6.900   3.513E-01
    7.000   3.670E-01
    7.100   3.832E-01
    7.200   4.000E-01
    7.300   4.175E-01
    7.400   4.355E-01
    7.500   4.543E-01
    7.600   4.736E-01
    7.700   4.937E-01
    7.800   5.144E-01
    7.900   5.358E-01
    8.000   5.580E-01
    8.100   5.809E-01
    8.200   6.045E-01
    8.300   6.290E-01
    8.400   6.542E-01
    8.500   6.803E-01
    8.600   7.073E-01
    8.700   7.353E-01
    8.800   7.641E-01
    8.900   7.940E-01
    9.000   8.249E-01
    9.100   8.570E-01
    9.200   8.902E-01
    9.300   9.246E-01
    9.400   9.603E-01
    9.500   9.974E-01
    9.600   1.036E+00
    9.700   1.076E+00
    9.800   1.117E+00
    9.900   1.161E+00
   10.000   1.206E+00
   10.100   1.253E+00
   10.200   1.302E+00
   10.300   1.353E+00
   10.400   1.406E+00
   10.500   1.461E+00
   10.600   1.519E+00
   10.700   1.580E+00
   10.800   1.643E+00
   10.900   1.709E+00
   11.000   1.778E+00
   11.100   1.850E+00
   11.200   1.925E+00
   11.300   2.004E+00
   11.400   2.087E+00
   11.500   2.173E+00
   11.600   2.264E+00
   11.700   2.358E+00
   11.800   2.457E+00
   11.900   2.561E+00
   12.000   2.669E+00
   12.100   2.782E+00
   12.200   2.900E+00
   12.300   3.023E+00
   12.400   3.152E+00
   12.500   3.286E+00
   12.600   3.425E+00
   12.700   3.570E+00
   12.800   3.720E+00
   12.900   3.876E+00
   13.000   4.036E+00
   13.100   4.202E+00
   13.200   4.372E+00
   13.300   4.547E+00
   13.400   4.725E+00
   13.500   4.906E+00
   13.600   5.090E+00
   13.700   5.275E+00
   13.800   5.461E+00
   13.900   5.647E+00
   14.000   5.832E+00
   14.100   6.014E+00
   14.200   6.193E+00
   14.300   6.367E+00
   14.400   6.535E+00
   14.500   6.697E+00
   14.600   6.850E+00
   14.700   6.994E+00
   14.800   7.128E+00
   14.900   7.251E+00
   15.000   7.363E+00
   15.100   7.462E+00
   15.200   7.549E+00
   15.300   7.622E+00
   15.400   7.683E+00
   15.500   7.729E+00
   15.600   7.762E+00
   15.700   7.782E+00
   15.800   7.788E+00
   15.900   7.781E+00
   16.000   7.761E+00
   16.100   7.730E+00
   16.200   7.686E+00
   16.300   7.632E+00
   16.400   7.568E+00
   16.500   7.495E+00
   16.600   7.413E+00
   16.700   7.324E+00
   16.800   7.229E+00
   16.900   7.128E+00
   17.000   7.022E+00
   17.100   6.912E+00
   17.200   6.800E+00
   17.300   6.685E+00
   17.400   6.568E+00
   17.500   6.449E+00
   17.600   6.330E+00
   17.700   6.210E+00
   17.800   6.089E+00
   17.900   5.968E+00
   18.000   5.847E+00
   18.100   5.726E+00
   18.200   5.604E+00
   18.300   5.482E+00
   18.400   5.360E+00
   18.500   5.238E+00
   18.600   5.116E+00
   18.700   4.994E+00
   18.800   4.872E+00
   18.900   4.750E+00
   19.000   4.628E+00
   19.100   4.507E+00
   19.200   4.387E+00
   19.300   4.267E+00
   19.400   4.149E+00
   19.500   4.033E+00
   19.600   3.918E+00
   19.700   3.806E+00
   19.800   3.695E+00
   19.900   3.588E+00
   20.000   3.482E+00
   20.100   3.380E+00
   20.200   3.280E+00
   20.300   3.183E+00
   20.400   3.089E+00
   20.500   2.998E+00
   20.600   2.910E+00
   20.700   2.825E+00
   20.800   2.743E+00
   20.900   2.664E+00
   21.000   2.587E+00
   21.100   2.514E+00
   21.200   2.443E+00
   21.300   2.375E+00
   21.400   2.309E+00
   21.500   2.246E+00
   21.600   2.185E+00
   21.700   2.127E+00
   21.800   2.071E+00
   21.900   2.016E+00
   22.000   1.964E+00
   22.100   1.914E+00
   22.200   1.866E+00
   22.300   1.819E+00
   22.400   1.775E+00
   22.500   1.731E+00
   22.600   1.690E+00
   22.700   1.650E+00
   22.800   1.611E+00
   22.900   1.574E+00
   23.000   1.538E+00
   23.100   1.503E+00
   23.200   1.470E+00
   23.300   1.438E+00
   23.400   1.406E+00
   23.500   1.376E+00
   23.600   1.347E+00
   23.700   1.319E+00
   23.800   1.291E+00
   23.900   1.265E+00
   24.000   1.239E+00
   24.100   1.215E+00
   24.200   1.191E+00
   24.300   1.167E+00
   24.400   1.145E+00
   24.500   1.123E+00
   24.600   1.102E+00
   24.700   1.081E+00
   24.800   1.061E+00
   24.900   1.042E+00
   25.000   1.023E+00
   25.100   1.005E+00
   25.200   9.873E-01
   25.300   9.700E-01
   25.400   9.533E-01
   25.500   9.370E-01
   25.600   9.211E-01
   25.700   9.057E-01
   25.800   8.907E-01
   25.900   8.760E-01
   26.000   8.618E-01
   26.100   8.479E-01
   26.200   8.344E-01
   26.300   8.213E-01
   26.400   8.084E-01
   26.500   7.959E-01
   26.600   7.837E-01
   26.700   7.718E-01
   26.800   7.602E-01
   26.900   7.489E-01
   27.000   7.378E-01
   27.100   7.270E-01
   27.200   7.165E-01
   27.300   7.062E-01
   27.400   6.961E-01
   27.500   6.863E-01
   27.600   6.767E-01
   27.700   6.673E-01
   27.800   6.581E-01
   27.900   6.492E-01
   28.000   6.404E-01
   28.100   6.318E-01
   28.200   6.234E-01
   28.300   6.152E-01
   28.400   6.071E-01
   28.500   5.992E-01
   28.600   5.915E-01
   28.700   5.840E-01
   28.800   5.766E-01
   28.900   5.693E-01
   29.000   5.622E-01
   29.100   5.553E-01
   29.200   5.484E-01
   29.300   5.418E-01
   29.400   5.352E-01
   29.500   5.288E-01
   29.600   5.225E-01
   29.700   5.163E-01
   29.800   5.102E-01
   29.900   5.043E-01
   30.000   4.984E-01
 
 Z=  30 A=  77  D1M-QRPA-Inter
 E[MeV]  fQRPA[mb/MeV]
    0.100   3.563E-05
    0.200   1.425E-04
    0.300   3.209E-04
    0.400   5.708E-04
    0.500   8.927E-04
    0.600   1.287E-03
    0.700   1.754E-03
    0.800   2.294E-03
    0.900   2.908E-03
    1.000   3.597E-03
    1.100   4.361E-03
    1.200   5.201E-03
    1.300   6.119E-03
    1.400   7.115E-03
    1.500   8.190E-03
    1.600   9.347E-03
    1.700   1.059E-02
    1.800   1.191E-02
    1.900   1.331E-02
    2.000   1.481E-02
    2.100   1.639E-02
    2.200   1.807E-02
    2.300   1.983E-02
    2.400   2.169E-02
    2.500   2.365E-02
    2.600   2.571E-02
    2.700   2.787E-02
    2.800   3.014E-02
    2.900   3.251E-02
    3.000   3.500E-02
    3.100   3.760E-02
    3.200   4.032E-02
    3.300   4.316E-02
    3.400   4.613E-02
    3.500   4.923E-02
    3.600   5.247E-02
    3.700   5.584E-02
    3.800   5.936E-02
    3.900   6.303E-02
    4.000   6.686E-02
    4.100   7.085E-02
    4.200   7.501E-02
    4.300   7.935E-02
    4.400   8.387E-02
    4.500   8.858E-02
    4.600   9.348E-02
    4.700   9.860E-02
    4.800   1.039E-01
    4.900   1.095E-01
    5.000   1.153E-01
    5.100   1.213E-01
    5.200   1.276E-01
    5.300   1.342E-01
    5.400   1.410E-01
    5.500   1.482E-01
    5.600   1.556E-01
    5.700   1.634E-01
    5.800   1.715E-01
    5.900   1.799E-01
    6.000   1.887E-01
    6.100   1.979E-01
    6.200   2.075E-01
    6.300   2.174E-01
    6.400   2.278E-01
    6.500   2.387E-01
    6.600   2.500E-01
    6.700   2.617E-01
    6.800   2.740E-01
    6.900   2.867E-01
    7.000   2.999E-01
    7.100   3.137E-01
    7.200   3.280E-01
    7.300   3.428E-01
    7.400   3.582E-01
    7.500   3.742E-01
    7.600   3.907E-01
    7.700   4.079E-01
    7.800   4.256E-01
    7.900   4.439E-01
    8.000   4.628E-01
    8.100   4.823E-01
    8.200   5.024E-01
    8.300   5.232E-01
    8.400   5.446E-01
    8.500   5.668E-01
    8.600   5.896E-01
    8.700   6.132E-01
    8.800   6.376E-01
    8.900   6.628E-01
    9.000   6.890E-01
    9.100   7.161E-01
    9.200   7.441E-01
    9.300   7.733E-01
    9.400   8.036E-01
    9.500   8.352E-01
    9.600   8.680E-01
    9.700   9.023E-01
    9.800   9.380E-01
    9.900   9.752E-01
   10.000   1.014E+00
   10.100   1.055E+00
   10.200   1.097E+00
   10.300   1.141E+00
   10.400   1.188E+00
   10.500   1.236E+00
   10.600   1.287E+00
   10.700   1.340E+00
   10.800   1.395E+00
   10.900   1.453E+00
   11.000   1.514E+00
   11.100   1.578E+00
   11.200   1.644E+00
   11.300   1.714E+00
   11.400   1.787E+00
   11.500   1.864E+00
   11.600   1.944E+00
   11.700   2.028E+00
   11.800   2.116E+00
   11.900   2.209E+00
   12.000   2.306E+00
   12.100   2.407E+00
   12.200   2.514E+00
   12.300   2.625E+00
   12.400   2.742E+00
   12.500   2.865E+00
   12.600   2.993E+00
   12.700   3.128E+00
   12.800   3.269E+00
   12.900   3.416E+00
   13.000   3.570E+00
   13.100   3.730E+00
   13.200   3.897E+00
   13.300   4.070E+00
   13.400   4.250E+00
   13.500   4.435E+00
   13.600   4.626E+00
   13.700   4.823E+00
   13.800   5.024E+00
   13.900   5.228E+00
   14.000   5.435E+00
   14.100   5.644E+00
   14.200   5.853E+00
   14.300   6.060E+00
   14.400   6.264E+00
   14.500   6.464E+00
   14.600   6.657E+00
   14.700   6.842E+00
   14.800   7.018E+00
   14.900   7.182E+00
   15.000   7.333E+00
   15.100   7.470E+00
   15.200   7.593E+00
   15.300   7.700E+00
   15.400   7.791E+00
   15.500   7.865E+00
   15.600   7.924E+00
   15.700   7.966E+00
   15.800   7.992E+00
   15.900   8.002E+00
   16.000   7.998E+00
   16.100   7.979E+00
   16.200   7.946E+00
   16.300   7.899E+00
   16.400   7.840E+00
   16.500   7.769E+00
   16.600   7.686E+00
   16.700   7.593E+00
   16.800   7.489E+00
   16.900   7.377E+00
   17.000   7.256E+00
   17.100   7.128E+00
   17.200   6.994E+00
   17.300   6.855E+00
   17.400   6.713E+00
   17.500   6.567E+00
   17.600   6.420E+00
   17.700   6.272E+00
   17.800   6.124E+00
   17.900   5.977E+00
   18.000   5.832E+00
   18.100   5.688E+00
   18.200   5.548E+00
   18.300   5.411E+00
   18.400   5.277E+00
   18.500   5.146E+00
   18.600   5.019E+00
   18.700   4.895E+00
   18.800   4.775E+00
   18.900   4.658E+00
   19.000   4.544E+00
   19.100   4.434E+00
   19.200   4.327E+00
   19.300   4.222E+00
   19.400   4.120E+00
   19.500   4.021E+00
   19.600   3.924E+00
   19.700   3.830E+00
   19.800   3.737E+00
   19.900   3.647E+00
   20.000   3.558E+00
   20.100   3.472E+00
   20.200   3.388E+00
   20.300   3.305E+00
   20.400   3.225E+00
   20.500   3.146E+00
   20.600   3.069E+00
   20.700   2.994E+00
   20.800   2.920E+00
   20.900   2.848E+00
   21.000   2.778E+00
   21.100   2.708E+00
   21.200   2.641E+00
   21.300   2.574E+00
   21.400   2.508E+00
   21.500   2.444E+00
   21.600   2.380E+00
   21.700   2.317E+00
   21.800   2.255E+00
   21.900   2.195E+00
   22.000   2.135E+00
   22.100   2.076E+00
   22.200   2.018E+00
   22.300   1.962E+00
   22.400   1.907E+00
   22.500   1.854E+00
   22.600   1.802E+00
   22.700   1.751E+00
   22.800   1.702E+00
   22.900   1.655E+00
   23.000   1.609E+00
   23.100   1.565E+00
   23.200   1.523E+00
   23.300   1.482E+00
   23.400   1.442E+00
   23.500   1.405E+00
   23.600   1.368E+00
   23.700   1.333E+00
   23.800   1.300E+00
   23.900   1.268E+00
   24.000   1.237E+00
   24.100   1.207E+00
   24.200   1.178E+00
   24.300   1.150E+00
   24.400   1.124E+00
   24.500   1.098E+00
   24.600   1.074E+00
   24.700   1.050E+00
   24.800   1.027E+00
   24.900   1.005E+00
   25.000   9.840E-01
   25.100   9.635E-01
   25.200   9.437E-01
   25.300   9.246E-01
   25.400   9.061E-01
   25.500   8.883E-01
   25.600   8.710E-01
   25.700   8.543E-01
   25.800   8.381E-01
   25.900   8.225E-01
   26.000   8.073E-01
   26.100   7.926E-01
   26.200   7.783E-01
   26.300   7.645E-01
   26.400   7.511E-01
   26.500   7.381E-01
   26.600   7.254E-01
   26.700   7.131E-01
   26.800   7.012E-01
   26.900   6.896E-01
   27.000   6.783E-01
   27.100   6.673E-01
   27.200   6.566E-01
   27.300   6.462E-01
   27.400   6.361E-01
   27.500   6.262E-01
   27.600   6.166E-01
   27.700   6.073E-01
   27.800   5.981E-01
   27.900   5.892E-01
   28.000   5.805E-01
   28.100   5.721E-01
   28.200   5.638E-01
   28.300   5.557E-01
   28.400   5.479E-01
   28.500   5.402E-01
   28.600   5.327E-01
   28.700   5.253E-01
   28.800   5.182E-01
   28.900   5.112E-01
   29.000   5.043E-01
   29.100   4.976E-01
   29.200   4.910E-01
   29.300   4.846E-01
   29.400   4.784E-01
   29.500   4.722E-01
   29.600   4.662E-01
   29.700   4.603E-01
   29.800   4.546E-01
   29.900   4.489E-01
   30.000   4.434E-01
 
 Z=  30 A=  78  D1M-QRPA
   E[MeV]   fQRPA[mb/MeV]
    0.100   2.801E-05
    0.200   1.121E-04
    0.300   2.523E-04
    0.400   4.488E-04
    0.500   7.018E-04
    0.600   1.012E-03
    0.700   1.379E-03
    0.800   1.804E-03
    0.900   2.286E-03
    1.000   2.828E-03
    1.100   3.429E-03
    1.200   4.090E-03
    1.300   4.812E-03
    1.400   5.595E-03
    1.500   6.441E-03
    1.600   7.351E-03
    1.700   8.326E-03
    1.800   9.367E-03
    1.900   1.047E-02
    2.000   1.165E-02
    2.100   1.290E-02
    2.200   1.422E-02
    2.300   1.561E-02
    2.400   1.708E-02
    2.500   1.862E-02
    2.600   2.025E-02
    2.700   2.195E-02
    2.800   2.374E-02
    2.900   2.562E-02
    3.000   2.758E-02
    3.100   2.964E-02
    3.200   3.179E-02
    3.300   3.403E-02
    3.400   3.638E-02
    3.500   3.884E-02
    3.600   4.140E-02
    3.700   4.407E-02
    3.800   4.686E-02
    3.900   4.977E-02
    4.000   5.280E-02
    4.100   5.597E-02
    4.200   5.927E-02
    4.300   6.271E-02
    4.400   6.630E-02
    4.500   7.005E-02
    4.600   7.396E-02
    4.700   7.803E-02
    4.800   8.229E-02
    4.900   8.673E-02
    5.000   9.136E-02
    5.100   9.620E-02
    5.200   1.013E-01
    5.300   1.065E-01
    5.400   1.120E-01
    5.500   1.178E-01
    5.600   1.238E-01
    5.700   1.301E-01
    5.800   1.367E-01
    5.900   1.436E-01
    6.000   1.507E-01
    6.100   1.583E-01
    6.200   1.661E-01
    6.300   1.743E-01
    6.400   1.829E-01
    6.500   1.919E-01
    6.600   2.012E-01
    6.700   2.110E-01
    6.800   2.212E-01
    6.900   2.318E-01
    7.000   2.429E-01
    7.100   2.545E-01
    7.200   2.665E-01
    7.300   2.790E-01
    7.400   2.920E-01
    7.500   3.055E-01
    7.600   3.195E-01
    7.700   3.340E-01
    7.800   3.489E-01
    7.900   3.644E-01
    8.000   3.804E-01
    8.100   3.968E-01
    8.200   4.138E-01
    8.300   4.313E-01
    8.400   4.493E-01
    8.500   4.679E-01
    8.600   4.871E-01
    8.700   5.069E-01
    8.800   5.273E-01
    8.900   5.484E-01
    9.000   5.703E-01
    9.100   5.930E-01
    9.200   6.165E-01
    9.300   6.410E-01
    9.400   6.665E-01
    9.500   6.931E-01
    9.600   7.209E-01
    9.700   7.499E-01
    9.800   7.803E-01
    9.900   8.120E-01
   10.000   8.452E-01
   10.100   8.800E-01
   10.200   9.164E-01
   10.300   9.545E-01
   10.400   9.945E-01
   10.500   1.036E+00
   10.600   1.080E+00
   10.700   1.126E+00
   10.800   1.174E+00
   10.900   1.225E+00
   11.000   1.278E+00
   11.100   1.334E+00
   11.200   1.392E+00
   11.300   1.453E+00
   11.400   1.517E+00
   11.500   1.584E+00
   11.600   1.655E+00
   11.700   1.729E+00
   11.800   1.807E+00
   11.900   1.888E+00
   12.000   1.974E+00
   12.100   2.064E+00
   12.200   2.159E+00
   12.300   2.259E+00
   12.400   2.365E+00
   12.500   2.476E+00
   12.600   2.593E+00
   12.700   2.716E+00
   12.800   2.846E+00
   12.900   2.984E+00
   13.000   3.129E+00
   13.100   3.281E+00
   13.200   3.442E+00
   13.300   3.611E+00
   13.400   3.788E+00
   13.500   3.974E+00
   13.600   4.168E+00
   13.700   4.370E+00
   13.800   4.580E+00
   13.900   4.797E+00
   14.000   5.020E+00
   14.100   5.249E+00
   14.200   5.481E+00
   14.300   5.716E+00
   14.400   5.951E+00
   14.500   6.183E+00
   14.600   6.412E+00
   14.700   6.634E+00
   14.800   6.847E+00
   14.900   7.049E+00
   15.000   7.238E+00
   15.100   7.412E+00
   15.200   7.569E+00
   15.300   7.709E+00
   15.400   7.830E+00
   15.500   7.933E+00
   15.600   8.016E+00
   15.700   8.081E+00
   15.800   8.128E+00
   15.900   8.157E+00
   16.000   8.168E+00
   16.100   8.163E+00
   16.200   8.141E+00
   16.300   8.103E+00
   16.400   8.050E+00
   16.500   7.981E+00
   16.600   7.898E+00
   16.700   7.801E+00
   16.800   7.690E+00
   16.900   7.566E+00
   17.000   7.431E+00
   17.100   7.285E+00
   17.200   7.130E+00
   17.300   6.967E+00
   17.400   6.799E+00
   17.500   6.627E+00
   17.600   6.453E+00
   17.700   6.277E+00
   17.800   6.103E+00
   17.900   5.932E+00
   18.000   5.764E+00
   18.100   5.601E+00
   18.200   5.443E+00
   18.300   5.292E+00
   18.400   5.147E+00
   18.500   5.010E+00
   18.600   4.879E+00
   18.700   4.755E+00
   18.800   4.638E+00
   18.900   4.527E+00
   19.000   4.423E+00
   19.100   4.324E+00
   19.200   4.230E+00
   19.300   4.140E+00
   19.400   4.055E+00
   19.500   3.973E+00
   19.600   3.895E+00
   19.700   3.819E+00
   19.800   3.745E+00
   19.900   3.674E+00
   20.000   3.604E+00
   20.100   3.535E+00
   20.200   3.468E+00
   20.300   3.402E+00
   20.400   3.336E+00
   20.500   3.272E+00
   20.600   3.208E+00
   20.700   3.144E+00
   20.800   3.081E+00
   20.900   3.018E+00
   21.000   2.955E+00
   21.100   2.892E+00
   21.200   2.829E+00
   21.300   2.765E+00
   21.400   2.700E+00
   21.500   2.635E+00
   21.600   2.569E+00
   21.700   2.502E+00
   21.800   2.435E+00
   21.900   2.367E+00
   22.000   2.299E+00
   22.100   2.231E+00
   22.200   2.164E+00
   22.300   2.097E+00
   22.400   2.031E+00
   22.500   1.967E+00
   22.600   1.904E+00
   22.700   1.842E+00
   22.800   1.782E+00
   22.900   1.724E+00
   23.000   1.669E+00
   23.100   1.615E+00
   23.200   1.563E+00
   23.300   1.514E+00
   23.400   1.466E+00
   23.500   1.421E+00
   23.600   1.378E+00
   23.700   1.336E+00
   23.800   1.297E+00
   23.900   1.259E+00
   24.000   1.223E+00
   24.100   1.188E+00
   24.200   1.155E+00
   24.300   1.124E+00
   24.400   1.093E+00
   24.500   1.065E+00
   24.600   1.037E+00
   24.700   1.011E+00
   24.800   9.853E-01
   24.900   9.610E-01
   25.000   9.378E-01
   25.100   9.154E-01
   25.200   8.940E-01
   25.300   8.734E-01
   25.400   8.536E-01
   25.500   8.346E-01
   25.600   8.163E-01
   25.700   7.987E-01
   25.800   7.817E-01
   25.900   7.653E-01
   26.000   7.495E-01
   26.100   7.343E-01
   26.200   7.195E-01
   26.300   7.053E-01
   26.400   6.916E-01
   26.500   6.783E-01
   26.600   6.654E-01
   26.700   6.530E-01
   26.800   6.409E-01
   26.900   6.293E-01
   27.000   6.180E-01
   27.100   6.070E-01
   27.200   5.964E-01
   27.300   5.860E-01
   27.400   5.760E-01
   27.500   5.663E-01
   27.600   5.568E-01
   27.700   5.477E-01
   27.800   5.387E-01
   27.900   5.300E-01
   28.000   5.216E-01
   28.100   5.134E-01
   28.200   5.054E-01
   28.300   4.976E-01
   28.400   4.900E-01
   28.500   4.826E-01
   28.600   4.754E-01
   28.700   4.684E-01
   28.800   4.615E-01
   28.900   4.548E-01
   29.000   4.483E-01
   29.100   4.419E-01
   29.200   4.357E-01
   29.300   4.296E-01
   29.400   4.237E-01
   29.500   4.179E-01
   29.600   4.123E-01
   29.700   4.067E-01
   29.800   4.013E-01
   29.900   3.960E-01
   30.000   3.909E-01
 
 Z=  30 A=  79  D1M-QRPA-Inter
 E[MeV]  fQRPA[mb/MeV]
    0.100   2.352E-05
    0.200   9.411E-05
    0.300   2.118E-04
    0.400   3.768E-04
    0.500   5.893E-04
    0.600   8.495E-04
    0.700   1.158E-03
    0.800   1.514E-03
    0.900   1.919E-03
    1.000   2.374E-03
    1.100   2.878E-03
    1.200   3.432E-03
    1.300   4.037E-03
    1.400   4.694E-03
    1.500   5.404E-03
    1.600   6.166E-03
    1.700   6.982E-03
    1.800   7.854E-03
    1.900   8.781E-03
    2.000   9.766E-03
    2.100   1.081E-02
    2.200   1.191E-02
    2.300   1.308E-02
    2.400   1.430E-02
    2.500   1.559E-02
    2.600   1.695E-02
    2.700   1.837E-02
    2.800   1.986E-02
    2.900   2.142E-02
    3.000   2.306E-02
    3.100   2.477E-02
    3.200   2.656E-02
    3.300   2.842E-02
    3.400   3.037E-02
    3.500   3.241E-02
    3.600   3.453E-02
    3.700   3.674E-02
    3.800   3.905E-02
    3.900   4.145E-02
    4.000   4.396E-02
    4.100   4.657E-02
    4.200   4.929E-02
    4.300   5.212E-02
    4.400   5.507E-02
    4.500   5.814E-02
    4.600   6.134E-02
    4.700   6.467E-02
    4.800   6.815E-02
    4.900   7.176E-02
    5.000   7.553E-02
    5.100   7.946E-02
    5.200   8.355E-02
    5.300   8.782E-02
    5.400   9.226E-02
    5.500   9.690E-02
    5.600   1.017E-01
    5.700   1.068E-01
    5.800   1.120E-01
    5.900   1.175E-01
    6.000   1.232E-01
    6.100   1.292E-01
    6.200   1.355E-01
    6.300   1.420E-01
    6.400   1.488E-01
    6.500   1.558E-01
    6.600   1.632E-01
    6.700   1.710E-01
    6.800   1.790E-01
    6.900   1.874E-01
    7.000   1.962E-01
    7.100   2.054E-01
    7.200   2.149E-01
    7.300   2.249E-01
    7.400   2.353E-01
    7.500   2.461E-01
    7.600   2.574E-01
    7.700   2.691E-01
    7.800   2.814E-01
    7.900   2.941E-01
    8.000   3.073E-01
    8.100   3.211E-01
    8.200   3.355E-01
    8.300   3.504E-01
    8.400   3.659E-01
    8.500   3.820E-01
    8.600   3.988E-01
    8.700   4.163E-01
    8.800   4.345E-01
    8.900   4.535E-01
    9.000   4.734E-01
    9.100   4.941E-01
    9.200   5.157E-01
    9.300   5.383E-01
    9.400   5.620E-01
    9.500   5.868E-01
    9.600   6.128E-01
    9.700   6.401E-01
    9.800   6.687E-01
    9.900   6.988E-01
   10.000   7.304E-01
   10.100   7.637E-01
   10.200   7.987E-01
   10.300   8.356E-01
   10.400   8.744E-01
   10.500   9.152E-01
   10.600   9.583E-01
   10.700   1.004E+00
   10.800   1.052E+00
   10.900   1.102E+00
   11.000   1.155E+00
   11.100   1.212E+00
   11.200   1.272E+00
   11.300   1.335E+00
   11.400   1.402E+00
   11.500   1.472E+00
   11.600   1.547E+00
   11.700   1.627E+00
   11.800   1.711E+00
   11.900   1.801E+00
   12.000   1.896E+00
   12.100   1.996E+00
   12.200   2.103E+00
   12.300   2.217E+00
   12.400   2.338E+00
   12.500   2.465E+00
   12.600   2.601E+00
   12.700   2.744E+00
   12.800   2.896E+00
   12.900   3.056E+00
   13.000   3.225E+00
   13.100   3.403E+00
   13.200   3.589E+00
   13.300   3.784E+00
   13.400   3.987E+00
   13.500   4.197E+00
   13.600   4.413E+00
   13.700   4.634E+00
   13.800   4.859E+00
   13.900   5.084E+00
   14.000   5.308E+00
   14.100   5.528E+00
   14.200   5.741E+00
   14.300   5.944E+00
   14.400   6.134E+00
   14.500   6.309E+00
   14.600   6.466E+00
   14.700   6.603E+00
   14.800   6.721E+00
   14.900   6.818E+00
   15.000   6.895E+00
   15.100   6.953E+00
   15.200   6.993E+00
   15.300   7.017E+00
   15.400   7.026E+00
   15.500   7.024E+00
   15.600   7.011E+00
   15.700   6.989E+00
   15.800   6.959E+00
   15.900   6.922E+00
   16.000   6.878E+00
   16.100   6.827E+00
   16.200   6.768E+00
   16.300   6.701E+00
   16.400   6.625E+00
   16.500   6.540E+00
   16.600   6.445E+00
   16.700   6.339E+00
   16.800   6.223E+00
   16.900   6.097E+00
   17.000   5.961E+00
   17.100   5.818E+00
   17.200   5.668E+00
   17.300   5.513E+00
   17.400   5.355E+00
   17.500   5.196E+00
   17.600   5.037E+00
   17.700   4.881E+00
   17.800   4.728E+00
   17.900   4.579E+00
   18.000   4.436E+00
   18.100   4.298E+00
   18.200   4.168E+00
   18.300   4.044E+00
   18.400   3.927E+00
   18.500   3.816E+00
   18.600   3.712E+00
   18.700   3.614E+00
   18.800   3.522E+00
   18.900   3.436E+00
   19.000   3.354E+00
   19.100   3.278E+00
   19.200   3.205E+00
   19.300   3.137E+00
   19.400   3.073E+00
   19.500   3.012E+00
   19.600   2.954E+00
   19.700   2.899E+00
   19.800   2.847E+00
   19.900   2.798E+00
   20.000   2.751E+00
   20.100   2.706E+00
   20.200   2.663E+00
   20.300   2.621E+00
   20.400   2.580E+00
   20.500   2.540E+00
   20.600   2.501E+00
   20.700   2.461E+00
   20.800   2.421E+00
   20.900   2.380E+00
   21.000   2.339E+00
   21.100   2.296E+00
   21.200   2.252E+00
   21.300   2.208E+00
   21.400   2.162E+00
   21.500   2.116E+00
   21.600   2.069E+00
   21.700   2.021E+00
   21.800   1.973E+00
   21.900   1.926E+00
   22.000   1.879E+00
   22.100   1.832E+00
   22.200   1.785E+00
   22.300   1.740E+00
   22.400   1.695E+00
   22.500   1.651E+00
   22.600   1.607E+00
   22.700   1.564E+00
   22.800   1.523E+00
   22.900   1.481E+00
   23.000   1.441E+00
   23.100   1.401E+00
   23.200   1.361E+00
   23.300   1.322E+00
   23.400   1.284E+00
   23.500   1.247E+00
   23.600   1.211E+00
   23.700   1.175E+00
   23.800   1.140E+00
   23.900   1.107E+00
   24.000   1.074E+00
   24.100   1.043E+00
   24.200   1.013E+00
   24.300   9.843E-01
   24.400   9.567E-01
   24.500   9.302E-01
   24.600   9.049E-01
   24.700   8.807E-01
   24.800   8.576E-01
   24.900   8.355E-01
   25.000   8.144E-01
   25.100   7.942E-01
   25.200   7.748E-01
   25.300   7.561E-01
   25.400   7.382E-01
   25.500   7.209E-01
   25.600   7.042E-01
   25.700   6.881E-01
   25.800   6.725E-01
   25.900   6.574E-01
   26.000   6.427E-01
   26.100   6.286E-01
   26.200   6.148E-01
   26.300   6.016E-01
   26.400   5.887E-01
   26.500   5.763E-01
   26.600   5.643E-01
   26.700   5.526E-01
   26.800   5.414E-01
   26.900   5.306E-01
   27.000   5.201E-01
   27.100   5.100E-01
   27.200   5.002E-01
   27.300   4.907E-01
   27.400   4.816E-01
   27.500   4.728E-01
   27.600   4.642E-01
   27.700   4.560E-01
   27.800   4.479E-01
   27.900   4.402E-01
   28.000   4.327E-01
   28.100   4.254E-01
   28.200   4.183E-01
   28.300   4.115E-01
   28.400   4.048E-01
   28.500   3.983E-01
   28.600   3.921E-01
   28.700   3.859E-01
   28.800   3.800E-01
   28.900   3.742E-01
   29.000   3.686E-01
   29.100   3.631E-01
   29.200   3.578E-01
   29.300   3.526E-01
   29.400   3.476E-01
   29.500   3.426E-01
   29.600   3.378E-01
   29.700   3.331E-01
   29.800   3.286E-01
   29.900   3.241E-01
   30.000   3.197E-01
 
 Z=  30 A=  80  D1M-QRPA
   E[MeV]   fQRPA[mb/MeV]
    0.100   1.884E-05
    0.200   7.539E-05
    0.300   1.697E-04
    0.400   3.019E-04
    0.500   4.721E-04
    0.600   6.805E-04
    0.700   9.273E-04
    0.800   1.213E-03
    0.900   1.537E-03
    1.000   1.901E-03
    1.100   2.304E-03
    1.200   2.748E-03
    1.300   3.232E-03
    1.400   3.758E-03
    1.500   4.325E-03
    1.600   4.934E-03
    1.700   5.587E-03
    1.800   6.283E-03
    1.900   7.024E-03
    2.000   7.810E-03
    2.100   8.642E-03
    2.200   9.522E-03
    2.300   1.045E-02
    2.400   1.143E-02
    2.500   1.245E-02
    2.600   1.353E-02
    2.700   1.466E-02
    2.800   1.585E-02
    2.900   1.709E-02
    3.000   1.839E-02
    3.100   1.975E-02
    3.200   2.117E-02
    3.300   2.265E-02
    3.400   2.419E-02
    3.500   2.580E-02
    3.600   2.748E-02
    3.700   2.923E-02
    3.800   3.105E-02
    3.900   3.294E-02
    4.000   3.491E-02
    4.100   3.697E-02
    4.200   3.910E-02
    4.300   4.133E-02
    4.400   4.364E-02
    4.500   4.604E-02
    4.600   4.854E-02
    4.700   5.114E-02
    4.800   5.384E-02
    4.900   5.665E-02
    5.000   5.958E-02
    5.100   6.262E-02
    5.200   6.578E-02
    5.300   6.907E-02
    5.400   7.249E-02
    5.500   7.605E-02
    5.600   7.975E-02
    5.700   8.360E-02
    5.800   8.761E-02
    5.900   9.179E-02
    6.000   9.614E-02
    6.100   1.007E-01
    6.200   1.054E-01
    6.300   1.103E-01
    6.400   1.154E-01
    6.500   1.208E-01
    6.600   1.264E-01
    6.700   1.322E-01
    6.800   1.383E-01
    6.900   1.446E-01
    7.000   1.512E-01
    7.100   1.581E-01
    7.200   1.654E-01
    7.300   1.730E-01
    7.400   1.809E-01
    7.500   1.892E-01
    7.600   1.979E-01
    7.700   2.070E-01
    7.800   2.165E-01
    7.900   2.265E-01
    8.000   2.370E-01
    8.100   2.479E-01
    8.200   2.595E-01
    8.300   2.716E-01
    8.400   2.843E-01
    8.500   2.976E-01
    8.600   3.116E-01
    8.700   3.263E-01
    8.800   3.417E-01
    8.900   3.579E-01
    9.000   3.749E-01
    9.100   3.927E-01
    9.200   4.115E-01
    9.300   4.313E-01
    9.400   4.520E-01
    9.500   4.739E-01
    9.600   4.969E-01
    9.700   5.212E-01
    9.800   5.468E-01
    9.900   5.738E-01
   10.000   6.023E-01
   10.100   6.324E-01
   10.200   6.642E-01
   10.300   6.979E-01
   10.400   7.334E-01
   10.500   7.711E-01
   10.600   8.110E-01
   10.700   8.533E-01
   10.800   8.983E-01
   10.900   9.460E-01
   11.000   9.968E-01
   11.100   1.051E+00
   11.200   1.108E+00
   11.300   1.170E+00
   11.400   1.235E+00
   11.500   1.305E+00
   11.600   1.380E+00
   11.700   1.461E+00
   11.800   1.546E+00
   11.900   1.638E+00
   12.000   1.737E+00
   12.100   1.842E+00
   12.200   1.955E+00
   12.300   2.076E+00
   12.400   2.205E+00
   12.500   2.342E+00
   12.600   2.489E+00
   12.700   2.645E+00
   12.800   2.811E+00
   12.900   2.987E+00
   13.000   3.172E+00
   13.100   3.367E+00
   13.200   3.571E+00
   13.300   3.783E+00
   13.400   4.003E+00
   13.500   4.229E+00
   13.600   4.459E+00
   13.700   4.689E+00
   13.800   4.918E+00
   13.900   5.141E+00
   14.000   5.355E+00
   14.100   5.555E+00
   14.200   5.737E+00
   14.300   5.898E+00
   14.400   6.033E+00
   14.500   6.141E+00
   14.600   6.221E+00
   14.700   6.271E+00
   14.800   6.294E+00
   14.900   6.292E+00
   15.000   6.267E+00
   15.100   6.223E+00
   15.200   6.164E+00
   15.300   6.093E+00
   15.400   6.016E+00
   15.500   5.934E+00
   15.600   5.850E+00
   15.700   5.767E+00
   15.800   5.685E+00
   15.900   5.604E+00
   16.000   5.525E+00
   16.100   5.447E+00
   16.200   5.368E+00
   16.300   5.287E+00
   16.400   5.203E+00
   16.500   5.114E+00
   16.600   5.018E+00
   16.700   4.915E+00
   16.800   4.805E+00
   16.900   4.687E+00
   17.000   4.563E+00
   17.100   4.433E+00
   17.200   4.299E+00
   17.300   4.162E+00
   17.400   4.024E+00
   17.500   3.887E+00
   17.600   3.752E+00
   17.700   3.621E+00
   17.800   3.494E+00
   17.900   3.372E+00
   18.000   3.257E+00
   18.100   3.147E+00
   18.200   3.045E+00
   18.300   2.948E+00
   18.400   2.858E+00
   18.500   2.773E+00
   18.600   2.695E+00
   18.700   2.621E+00
   18.800   2.552E+00
   18.900   2.488E+00
   19.000   2.427E+00
   19.100   2.371E+00
   19.200   2.318E+00
   19.300   2.268E+00
   19.400   2.221E+00
   19.500   2.178E+00
   19.600   2.137E+00
   19.700   2.100E+00
   19.800   2.065E+00
   19.900   2.033E+00
   20.000   2.003E+00
   20.100   1.976E+00
   20.200   1.950E+00
   20.300   1.926E+00
   20.400   1.904E+00
   20.500   1.882E+00
   20.600   1.860E+00
   20.700   1.838E+00
   20.800   1.815E+00
   20.900   1.791E+00
   21.000   1.766E+00
   21.100   1.739E+00
   21.200   1.711E+00
   21.300   1.682E+00
   21.400   1.652E+00
   21.500   1.621E+00
   21.600   1.589E+00
   21.700   1.558E+00
   21.800   1.526E+00
   21.900   1.495E+00
   22.000   1.464E+00
   22.100   1.435E+00
   22.200   1.405E+00
   22.300   1.377E+00
   22.400   1.349E+00
   22.500   1.322E+00
   22.600   1.295E+00
   22.700   1.268E+00
   22.800   1.241E+00
   22.900   1.214E+00
   23.000   1.187E+00
   23.100   1.159E+00
   23.200   1.131E+00
   23.300   1.102E+00
   23.400   1.073E+00
   23.500   1.044E+00
   23.600   1.015E+00
   23.700   9.858E-01
   23.800   9.570E-01
   23.900   9.286E-01
   24.000   9.009E-01
   24.100   8.740E-01
   24.200   8.479E-01
   24.300   8.227E-01
   24.400   7.986E-01
   24.500   7.755E-01
   24.600   7.534E-01
   24.700   7.323E-01
   24.800   7.122E-01
   24.900   6.931E-01
   25.000   6.748E-01
   25.100   6.573E-01
   25.200   6.406E-01
   25.300   6.245E-01
   25.400   6.090E-01
   25.500   5.941E-01
   25.600   5.796E-01
   25.700   5.656E-01
   25.800   5.520E-01
   25.900   5.387E-01
   26.000   5.259E-01
   26.100   5.134E-01
   26.200   5.013E-01
   26.300   4.895E-01
   26.400   4.781E-01
   26.500   4.671E-01
   26.600   4.565E-01
   26.700   4.463E-01
   26.800   4.364E-01
   26.900   4.268E-01
   27.000   4.176E-01
   27.100   4.088E-01
   27.200   4.003E-01
   27.300   3.921E-01
   27.400   3.842E-01
   27.500   3.766E-01
   27.600   3.692E-01
   27.700   3.622E-01
   27.800   3.554E-01
   27.900   3.488E-01
   28.000   3.424E-01
   28.100   3.363E-01
   28.200   3.304E-01
   28.300   3.246E-01
   28.400   3.191E-01
   28.500   3.137E-01
   28.600   3.085E-01
   28.700   3.034E-01
   28.800   2.985E-01
   28.900   2.938E-01
   29.000   2.892E-01
   29.100   2.847E-01
   29.200   2.804E-01
   29.300   2.761E-01
   29.400   2.720E-01
   29.500   2.680E-01
   29.600   2.641E-01
   29.700   2.603E-01
   29.800   2.566E-01
   29.900   2.530E-01
   30.000   2.495E-01
 
