 Z=  34 A=  76  D1M-QRPA
   E[MeV]   fQRPA[mb/MeV]
    0.100   1.084E-04
    0.200   4.336E-04
    0.300   9.761E-04
    0.400   1.737E-03
    0.500   2.716E-03
    0.600   3.916E-03
    0.700   5.337E-03
    0.800   6.982E-03
    0.900   8.852E-03
    1.000   1.095E-02
    1.100   1.328E-02
    1.200   1.584E-02
    1.300   1.864E-02
    1.400   2.168E-02
    1.500   2.497E-02
    1.600   2.850E-02
    1.700   3.229E-02
    1.800   3.634E-02
    1.900   4.065E-02
    2.000   4.522E-02
    2.100   5.008E-02
    2.200   5.521E-02
    2.300   6.064E-02
    2.400   6.636E-02
    2.500   7.238E-02
    2.600   7.871E-02
    2.700   8.537E-02
    2.800   9.235E-02
    2.900   9.967E-02
    3.000   1.073E-01
    3.100   1.154E-01
    3.200   1.238E-01
    3.300   1.325E-01
    3.400   1.417E-01
    3.500   1.513E-01
    3.600   1.612E-01
    3.700   1.717E-01
    3.800   1.825E-01
    3.900   1.938E-01
    4.000   2.056E-01
    4.100   2.179E-01
    4.200   2.307E-01
    4.300   2.440E-01
    4.400   2.579E-01
    4.500   2.723E-01
    4.600   2.873E-01
    4.700   3.029E-01
    4.800   3.191E-01
    4.900   3.359E-01
    5.000   3.535E-01
    5.100   3.717E-01
    5.200   3.906E-01
    5.300   4.102E-01
    5.400   4.307E-01
    5.500   4.519E-01
    5.600   4.739E-01
    5.700   4.967E-01
    5.800   5.204E-01
    5.900   5.450E-01
    6.000   5.706E-01
    6.100   5.970E-01
    6.200   6.245E-01
    6.300   6.529E-01
    6.400   6.824E-01
    6.500   7.129E-01
    6.600   7.445E-01
    6.700   7.772E-01
    6.800   8.110E-01
    6.900   8.460E-01
    7.000   8.821E-01
    7.100   9.194E-01
    7.200   9.579E-01
    7.300   9.975E-01
    7.400   1.038E+00
    7.500   1.081E+00
    7.600   1.124E+00
    7.700   1.169E+00
    7.800   1.215E+00
    7.900   1.262E+00
    8.000   1.310E+00
    8.100   1.360E+00
    8.200   1.411E+00
    8.300   1.463E+00
    8.400   1.517E+00
    8.500   1.571E+00
    8.600   1.628E+00
    8.700   1.685E+00
    8.800   1.744E+00
    8.900   1.804E+00
    9.000   1.866E+00
    9.100   1.929E+00
    9.200   1.993E+00
    9.300   2.059E+00
    9.400   2.127E+00
    9.500   2.196E+00
    9.600   2.267E+00
    9.700   2.339E+00
    9.800   2.414E+00
    9.900   2.490E+00
   10.000   2.567E+00
   10.100   2.647E+00
   10.200   2.728E+00
   10.300   2.811E+00
   10.400   2.896E+00
   10.500   2.983E+00
   10.600   3.072E+00
   10.700   3.162E+00
   10.800   3.255E+00
   10.900   3.349E+00
   11.000   3.444E+00
   11.100   3.542E+00
   11.200   3.640E+00
   11.300   3.740E+00
   11.400   3.842E+00
   11.500   3.944E+00
   11.600   4.047E+00
   11.700   4.152E+00
   11.800   4.257E+00
   11.900   4.362E+00
   12.000   4.468E+00
   12.100   4.574E+00
   12.200   4.680E+00
   12.300   4.786E+00
   12.400   4.891E+00
   12.500   4.996E+00
   12.600   5.100E+00
   12.700   5.203E+00
   12.800   5.305E+00
   12.900   5.406E+00
   13.000   5.505E+00
   13.100   5.603E+00
   13.200   5.698E+00
   13.300   5.792E+00
   13.400   5.883E+00
   13.500   5.971E+00
   13.600   6.057E+00
   13.700   6.139E+00
   13.800   6.218E+00
   13.900   6.293E+00
   14.000   6.364E+00
   14.100   6.430E+00
   14.200   6.492E+00
   14.300   6.549E+00
   14.400   6.601E+00
   14.500   6.647E+00
   14.600   6.687E+00
   14.700   6.721E+00
   14.800   6.748E+00
   14.900   6.769E+00
   15.000   6.783E+00
   15.100   6.791E+00
   15.200   6.791E+00
   15.300   6.784E+00
   15.400   6.769E+00
   15.500   6.748E+00
   15.600   6.719E+00
   15.700   6.684E+00
   15.800   6.642E+00
   15.900   6.594E+00
   16.000   6.539E+00
   16.100   6.478E+00
   16.200   6.412E+00
   16.300   6.341E+00
   16.400   6.265E+00
   16.500   6.184E+00
   16.600   6.100E+00
   16.700   6.012E+00
   16.800   5.921E+00
   16.900   5.827E+00
   17.000   5.731E+00
   17.100   5.634E+00
   17.200   5.535E+00
   17.300   5.434E+00
   17.400   5.334E+00
   17.500   5.232E+00
   17.600   5.131E+00
   17.700   5.030E+00
   17.800   4.929E+00
   17.900   4.829E+00
   18.000   4.730E+00
   18.100   4.632E+00
   18.200   4.535E+00
   18.300   4.439E+00
   18.400   4.345E+00
   18.500   4.253E+00
   18.600   4.162E+00
   18.700   4.073E+00
   18.800   3.986E+00
   18.900   3.901E+00
   19.000   3.818E+00
   19.100   3.736E+00
   19.200   3.657E+00
   19.300   3.579E+00
   19.400   3.504E+00
   19.500   3.430E+00
   19.600   3.358E+00
   19.700   3.288E+00
   19.800   3.220E+00
   19.900   3.154E+00
   20.000   3.089E+00
   20.100   3.026E+00
   20.200   2.965E+00
   20.300   2.905E+00
   20.400   2.847E+00
   20.500   2.791E+00
   20.600   2.736E+00
   20.700   2.682E+00
   20.800   2.630E+00
   20.900   2.579E+00
   21.000   2.530E+00
   21.100   2.481E+00
   21.200   2.434E+00
   21.300   2.389E+00
   21.400   2.344E+00
   21.500   2.300E+00
   21.600   2.258E+00
   21.700   2.216E+00
   21.800   2.175E+00
   21.900   2.136E+00
   22.000   2.097E+00
   22.100   2.060E+00
   22.200   2.023E+00
   22.300   1.987E+00
   22.400   1.952E+00
   22.500   1.917E+00
   22.600   1.884E+00
   22.700   1.851E+00
   22.800   1.819E+00
   22.900   1.788E+00
   23.000   1.758E+00
   23.100   1.728E+00
   23.200   1.699E+00
   23.300   1.671E+00
   23.400   1.643E+00
   23.500   1.616E+00
   23.600   1.590E+00
   23.700   1.564E+00
   23.800   1.539E+00
   23.900   1.514E+00
   24.000   1.491E+00
   24.100   1.467E+00
   24.200   1.444E+00
   24.300   1.422E+00
   24.400   1.400E+00
   24.500   1.379E+00
   24.600   1.358E+00
   24.700   1.338E+00
   24.800   1.318E+00
   24.900   1.298E+00
   25.000   1.279E+00
   25.100   1.261E+00
   25.200   1.243E+00
   25.300   1.225E+00
   25.400   1.207E+00
   25.500   1.190E+00
   25.600   1.174E+00
   25.700   1.158E+00
   25.800   1.142E+00
   25.900   1.126E+00
   26.000   1.111E+00
   26.100   1.096E+00
   26.200   1.081E+00
   26.300   1.067E+00
   26.400   1.053E+00
   26.500   1.039E+00
   26.600   1.026E+00
   26.700   1.013E+00
   26.800   1.000E+00
   26.900   9.874E-01
   27.000   9.751E-01
   27.100   9.629E-01
   27.200   9.511E-01
   27.300   9.394E-01
   27.400   9.280E-01
   27.500   9.168E-01
   27.600   9.058E-01
   27.700   8.950E-01
   27.800   8.844E-01
   27.900   8.740E-01
   28.000   8.639E-01
   28.100   8.539E-01
   28.200   8.440E-01
   28.300   8.344E-01
   28.400   8.250E-01
   28.500   8.157E-01
   28.600   8.065E-01
   28.700   7.976E-01
   28.800   7.888E-01
   28.900   7.801E-01
   29.000   7.716E-01
   29.100   7.633E-01
   29.200   7.551E-01
   29.300   7.470E-01
   29.400   7.391E-01
   29.500   7.313E-01
   29.600   7.236E-01
   29.700   7.161E-01
   29.800   7.087E-01
   29.900   7.014E-01
   30.000   6.943E-01
 
 Z=  34 A=  77  D1M-QRPA-Inter
 E[MeV]  fQRPA[mb/MeV]
    0.100   1.079E-04
    0.200   4.314E-04
    0.300   9.702E-04
    0.400   1.724E-03
    0.500   2.691E-03
    0.600   3.872E-03
    0.700   5.265E-03
    0.800   6.870E-03
    0.900   8.685E-03
    1.000   1.071E-02
    1.100   1.295E-02
    1.200   1.539E-02
    1.300   1.805E-02
    1.400   2.092E-02
    1.500   2.400E-02
    1.600   2.729E-02
    1.700   3.081E-02
    1.800   3.454E-02
    1.900   3.849E-02
    2.000   4.267E-02
    2.100   4.708E-02
    2.200   5.172E-02
    2.300   5.660E-02
    2.400   6.173E-02
    2.500   6.711E-02
    2.600   7.274E-02
    2.700   7.863E-02
    2.800   8.479E-02
    2.900   9.123E-02
    3.000   9.795E-02
    3.100   1.050E-01
    3.200   1.123E-01
    3.300   1.199E-01
    3.400   1.278E-01
    3.500   1.361E-01
    3.600   1.446E-01
    3.700   1.536E-01
    3.800   1.629E-01
    3.900   1.725E-01
    4.000   1.825E-01
    4.100   1.929E-01
    4.200   2.037E-01
    4.300   2.149E-01
    4.400   2.266E-01
    4.500   2.386E-01
    4.600   2.511E-01
    4.700   2.641E-01
    4.800   2.776E-01
    4.900   2.915E-01
    5.000   3.059E-01
    5.100   3.209E-01
    5.200   3.364E-01
    5.300   3.525E-01
    5.400   3.691E-01
    5.500   3.864E-01
    5.600   4.042E-01
    5.700   4.227E-01
    5.800   4.418E-01
    5.900   4.616E-01
    6.000   4.821E-01
    6.100   5.033E-01
    6.200   5.252E-01
    6.300   5.480E-01
    6.400   5.714E-01
    6.500   5.957E-01
    6.600   6.209E-01
    6.700   6.469E-01
    6.800   6.737E-01
    6.900   7.015E-01
    7.000   7.302E-01
    7.100   7.598E-01
    7.200   7.904E-01
    7.300   8.220E-01
    7.400   8.546E-01
    7.500   8.883E-01
    7.600   9.230E-01
    7.700   9.588E-01
    7.800   9.957E-01
    7.900   1.034E+00
    8.000   1.073E+00
    8.100   1.113E+00
    8.200   1.155E+00
    8.300   1.197E+00
    8.400   1.241E+00
    8.500   1.287E+00
    8.600   1.333E+00
    8.700   1.381E+00
    8.800   1.430E+00
    8.900   1.481E+00
    9.000   1.533E+00
    9.100   1.586E+00
    9.200   1.641E+00
    9.300   1.698E+00
    9.400   1.756E+00
    9.500   1.816E+00
    9.600   1.877E+00
    9.700   1.940E+00
    9.800   2.005E+00
    9.900   2.071E+00
   10.000   2.140E+00
   10.100   2.210E+00
   10.200   2.283E+00
   10.300   2.357E+00
   10.400   2.433E+00
   10.500   2.511E+00
   10.600   2.591E+00
   10.700   2.674E+00
   10.800   2.758E+00
   10.900   2.844E+00
   11.000   2.932E+00
   11.100   3.023E+00
   11.200   3.115E+00
   11.300   3.209E+00
   11.400   3.306E+00
   11.500   3.404E+00
   11.600   3.504E+00
   11.700   3.605E+00
   11.800   3.709E+00
   11.900   3.814E+00
   12.000   3.921E+00
   12.100   4.029E+00
   12.200   4.138E+00
   12.300   4.249E+00
   12.400   4.361E+00
   12.500   4.474E+00
   12.600   4.588E+00
   12.700   4.702E+00
   12.800   4.818E+00
   12.900   4.933E+00
   13.000   5.049E+00
   13.100   5.165E+00
   13.200   5.281E+00
   13.300   5.396E+00
   13.400   5.510E+00
   13.500   5.624E+00
   13.600   5.736E+00
   13.700   5.846E+00
   13.800   5.955E+00
   13.900   6.061E+00
   14.000   6.164E+00
   14.100   6.264E+00
   14.200   6.361E+00
   14.300   6.454E+00
   14.400   6.542E+00
   14.500   6.626E+00
   14.600   6.704E+00
   14.700   6.777E+00
   14.800   6.844E+00
   14.900   6.905E+00
   15.000   6.959E+00
   15.100   7.006E+00
   15.200   7.045E+00
   15.300   7.077E+00
   15.400   7.102E+00
   15.500   7.118E+00
   15.600   7.127E+00
   15.700   7.127E+00
   15.800   7.120E+00
   15.900   7.104E+00
   16.000   7.080E+00
   16.100   7.049E+00
   16.200   7.010E+00
   16.300   6.963E+00
   16.400   6.910E+00
   16.500   6.850E+00
   16.600   6.783E+00
   16.700   6.710E+00
   16.800   6.632E+00
   16.900   6.548E+00
   17.000   6.460E+00
   17.100   6.368E+00
   17.200   6.272E+00
   17.300   6.172E+00
   17.400   6.070E+00
   17.500   5.965E+00
   17.600   5.859E+00
   17.700   5.751E+00
   17.800   5.642E+00
   17.900   5.532E+00
   18.000   5.422E+00
   18.100   5.312E+00
   18.200   5.203E+00
   18.300   5.094E+00
   18.400   4.985E+00
   18.500   4.878E+00
   18.600   4.773E+00
   18.700   4.668E+00
   18.800   4.565E+00
   18.900   4.464E+00
   19.000   4.365E+00
   19.100   4.268E+00
   19.200   4.173E+00
   19.300   4.080E+00
   19.400   3.988E+00
   19.500   3.899E+00
   19.600   3.813E+00
   19.700   3.728E+00
   19.800   3.645E+00
   19.900   3.565E+00
   20.000   3.487E+00
   20.100   3.410E+00
   20.200   3.336E+00
   20.300   3.264E+00
   20.400   3.193E+00
   20.500   3.125E+00
   20.600   3.058E+00
   20.700   2.994E+00
   20.800   2.931E+00
   20.900   2.870E+00
   21.000   2.810E+00
   21.100   2.752E+00
   21.200   2.696E+00
   21.300   2.641E+00
   21.400   2.588E+00
   21.500   2.536E+00
   21.600   2.485E+00
   21.700   2.436E+00
   21.800   2.389E+00
   21.900   2.342E+00
   22.000   2.297E+00
   22.100   2.253E+00
   22.200   2.210E+00
   22.300   2.168E+00
   22.400   2.127E+00
   22.500   2.088E+00
   22.600   2.049E+00
   22.700   2.012E+00
   22.800   1.975E+00
   22.900   1.940E+00
   23.000   1.905E+00
   23.100   1.871E+00
   23.200   1.838E+00
   23.300   1.806E+00
   23.400   1.775E+00
   23.500   1.744E+00
   23.600   1.714E+00
   23.700   1.685E+00
   23.800   1.657E+00
   23.900   1.630E+00
   24.000   1.603E+00
   24.100   1.576E+00
   24.200   1.551E+00
   24.300   1.526E+00
   24.400   1.502E+00
   24.500   1.478E+00
   24.600   1.455E+00
   24.700   1.432E+00
   24.800   1.410E+00
   24.900   1.388E+00
   25.000   1.367E+00
   25.100   1.347E+00
   25.200   1.327E+00
   25.300   1.307E+00
   25.400   1.288E+00
   25.500   1.269E+00
   25.600   1.251E+00
   25.700   1.233E+00
   25.800   1.215E+00
   25.900   1.198E+00
   26.000   1.181E+00
   26.100   1.165E+00
   26.200   1.149E+00
   26.300   1.133E+00
   26.400   1.118E+00
   26.500   1.103E+00
   26.600   1.088E+00
   26.700   1.074E+00
   26.800   1.060E+00
   26.900   1.046E+00
   27.000   1.032E+00
   27.100   1.019E+00
   27.200   1.006E+00
   27.300   9.934E-01
   27.400   9.809E-01
   27.500   9.687E-01
   27.600   9.567E-01
   27.700   9.450E-01
   27.800   9.335E-01
   27.900   9.222E-01
   28.000   9.111E-01
   28.100   9.002E-01
   28.200   8.895E-01
   28.300   8.791E-01
   28.400   8.688E-01
   28.500   8.587E-01
   28.600   8.488E-01
   28.700   8.391E-01
   28.800   8.296E-01
   28.900   8.202E-01
   29.000   8.110E-01
   29.100   8.020E-01
   29.200   7.931E-01
   29.300   7.844E-01
   29.400   7.758E-01
   29.500   7.674E-01
   29.600   7.591E-01
   29.700   7.510E-01
   29.800   7.430E-01
   29.900   7.351E-01
   30.000   7.274E-01
 
 Z=  34 A=  78  D1M-QRPA
   E[MeV]   fQRPA[mb/MeV]
    0.100   1.066E-04
    0.200   4.260E-04
    0.300   9.570E-04
    0.400   1.698E-03
    0.500   2.647E-03
    0.600   3.800E-03
    0.700   5.155E-03
    0.800   6.709E-03
    0.900   8.457E-03
    1.000   1.040E-02
    1.100   1.253E-02
    1.200   1.484E-02
    1.300   1.734E-02
    1.400   2.003E-02
    1.500   2.289E-02
    1.600   2.594E-02
    1.700   2.917E-02
    1.800   3.258E-02
    1.900   3.618E-02
    2.000   3.996E-02
    2.100   4.393E-02
    2.200   4.809E-02
    2.300   5.244E-02
    2.400   5.699E-02
    2.500   6.175E-02
    2.600   6.671E-02
    2.700   7.188E-02
    2.800   7.727E-02
    2.900   8.287E-02
    3.000   8.871E-02
    3.100   9.477E-02
    3.200   1.011E-01
    3.300   1.076E-01
    3.400   1.144E-01
    3.500   1.215E-01
    3.600   1.288E-01
    3.700   1.364E-01
    3.800   1.442E-01
    3.900   1.524E-01
    4.000   1.608E-01
    4.100   1.695E-01
    4.200   1.786E-01
    4.300   1.879E-01
    4.400   1.976E-01
    4.500   2.076E-01
    4.600   2.179E-01
    4.700   2.286E-01
    4.800   2.396E-01
    4.900   2.510E-01
    5.000   2.628E-01
    5.100   2.750E-01
    5.200   2.876E-01
    5.300   3.006E-01
    5.400   3.140E-01
    5.500   3.279E-01
    5.600   3.422E-01
    5.700   3.570E-01
    5.800   3.722E-01
    5.900   3.880E-01
    6.000   4.043E-01
    6.100   4.211E-01
    6.200   4.384E-01
    6.300   4.564E-01
    6.400   4.749E-01
    6.500   4.941E-01
    6.600   5.139E-01
    6.700   5.343E-01
    6.800   5.555E-01
    6.900   5.773E-01
    7.000   5.999E-01
    7.100   6.232E-01
    7.200   6.473E-01
    7.300   6.723E-01
    7.400   6.980E-01
    7.500   7.247E-01
    7.600   7.522E-01
    7.700   7.807E-01
    7.800   8.101E-01
    7.900   8.405E-01
    8.000   8.719E-01
    8.100   9.044E-01
    8.200   9.380E-01
    8.300   9.727E-01
    8.400   1.008E+00
    8.500   1.046E+00
    8.600   1.084E+00
    8.700   1.123E+00
    8.800   1.164E+00
    8.900   1.206E+00
    9.000   1.250E+00
    9.100   1.295E+00
    9.200   1.341E+00
    9.300   1.389E+00
    9.400   1.439E+00
    9.500   1.490E+00
    9.600   1.542E+00
    9.700   1.597E+00
    9.800   1.653E+00
    9.900   1.711E+00
   10.000   1.770E+00
   10.100   1.832E+00
   10.200   1.895E+00
   10.300   1.961E+00
   10.400   2.028E+00
   10.500   2.098E+00
   10.600   2.169E+00
   10.700   2.243E+00
   10.800   2.319E+00
   10.900   2.397E+00
   11.000   2.478E+00
   11.100   2.560E+00
   11.200   2.646E+00
   11.300   2.733E+00
   11.400   2.823E+00
   11.500   2.915E+00
   11.600   3.010E+00
   11.700   3.107E+00
   11.800   3.207E+00
   11.900   3.310E+00
   12.000   3.415E+00
   12.100   3.522E+00
   12.200   3.632E+00
   12.300   3.744E+00
   12.400   3.859E+00
   12.500   3.976E+00
   12.600   4.096E+00
   12.700   4.218E+00
   12.800   4.342E+00
   12.900   4.468E+00
   13.000   4.596E+00
   13.100   4.725E+00
   13.200   4.857E+00
   13.300   4.989E+00
   13.400   5.122E+00
   13.500   5.257E+00
   13.600   5.391E+00
   13.700   5.526E+00
   13.800   5.660E+00
   13.900   5.794E+00
   14.000   5.926E+00
   14.100   6.057E+00
   14.200   6.186E+00
   14.300   6.312E+00
   14.400   6.436E+00
   14.500   6.555E+00
   14.600   6.671E+00
   14.700   6.783E+00
   14.800   6.889E+00
   14.900   6.990E+00
   15.000   7.085E+00
   15.100   7.173E+00
   15.200   7.254E+00
   15.300   7.328E+00
   15.400   7.394E+00
   15.500   7.452E+00
   15.600   7.502E+00
   15.700   7.543E+00
   15.800   7.574E+00
   15.900   7.596E+00
   16.000   7.609E+00
   16.100   7.612E+00
   16.200   7.606E+00
   16.300   7.590E+00
   16.400   7.564E+00
   16.500   7.530E+00
   16.600   7.486E+00
   16.700   7.433E+00
   16.800   7.372E+00
   16.900   7.303E+00
   17.000   7.227E+00
   17.100   7.143E+00
   17.200   7.053E+00
   17.300   6.957E+00
   17.400   6.856E+00
   17.500   6.750E+00
   17.600   6.640E+00
   17.700   6.526E+00
   17.800   6.409E+00
   17.900   6.290E+00
   18.000   6.169E+00
   18.100   6.047E+00
   18.200   5.924E+00
   18.300   5.800E+00
   18.400   5.677E+00
   18.500   5.554E+00
   18.600   5.431E+00
   18.700   5.309E+00
   18.800   5.189E+00
   18.900   5.071E+00
   19.000   4.954E+00
   19.100   4.839E+00
   19.200   4.726E+00
   19.300   4.615E+00
   19.400   4.506E+00
   19.500   4.400E+00
   19.600   4.296E+00
   19.700   4.195E+00
   19.800   4.096E+00
   19.900   3.999E+00
   20.000   3.906E+00
   20.100   3.814E+00
   20.200   3.725E+00
   20.300   3.639E+00
   20.400   3.555E+00
   20.500   3.473E+00
   20.600   3.393E+00
   20.700   3.316E+00
   20.800   3.241E+00
   20.900   3.169E+00
   21.000   3.098E+00
   21.100   3.029E+00
   21.200   2.963E+00
   21.300   2.898E+00
   21.400   2.836E+00
   21.500   2.775E+00
   21.600   2.716E+00
   21.700   2.659E+00
   21.800   2.603E+00
   21.900   2.549E+00
   22.000   2.497E+00
   22.100   2.446E+00
   22.200   2.396E+00
   22.300   2.348E+00
   22.400   2.302E+00
   22.500   2.256E+00
   22.600   2.212E+00
   22.700   2.170E+00
   22.800   2.128E+00
   22.900   2.088E+00
   23.000   2.049E+00
   23.100   2.010E+00
   23.200   1.973E+00
   23.300   1.937E+00
   23.400   1.902E+00
   23.500   1.868E+00
   23.600   1.835E+00
   23.700   1.802E+00
   23.800   1.771E+00
   23.900   1.740E+00
   24.000   1.710E+00
   24.100   1.681E+00
   24.200   1.653E+00
   24.300   1.625E+00
   24.400   1.598E+00
   24.500   1.572E+00
   24.600   1.547E+00
   24.700   1.522E+00
   24.800   1.497E+00
   24.900   1.474E+00
   25.000   1.450E+00
   25.100   1.428E+00
   25.200   1.406E+00
   25.300   1.384E+00
   25.400   1.363E+00
   25.500   1.343E+00
   25.600   1.323E+00
   25.700   1.303E+00
   25.800   1.284E+00
   25.900   1.265E+00
   26.000   1.247E+00
   26.100   1.229E+00
   26.200   1.212E+00
   26.300   1.194E+00
   26.400   1.178E+00
   26.500   1.161E+00
   26.600   1.145E+00
   26.700   1.130E+00
   26.800   1.114E+00
   26.900   1.099E+00
   27.000   1.085E+00
   27.100   1.070E+00
   27.200   1.056E+00
   27.300   1.043E+00
   27.400   1.029E+00
   27.500   1.016E+00
   27.600   1.003E+00
   27.700   9.903E-01
   27.800   9.778E-01
   27.900   9.656E-01
   28.000   9.537E-01
   28.100   9.419E-01
   28.200   9.304E-01
   28.300   9.192E-01
   28.400   9.081E-01
   28.500   8.973E-01
   28.600   8.866E-01
   28.700   8.762E-01
   28.800   8.659E-01
   28.900   8.558E-01
   29.000   8.460E-01
   29.100   8.363E-01
   29.200   8.268E-01
   29.300   8.174E-01
   29.400   8.082E-01
   29.500   7.992E-01
   29.600   7.903E-01
   29.700   7.816E-01
   29.800   7.731E-01
   29.900   7.647E-01
   30.000   7.564E-01
 
 Z=  34 A=  79  D1M-QRPA-Inter
 E[MeV]  fQRPA[mb/MeV]
    0.100   7.690E-05
    0.200   3.074E-04
    0.300   6.910E-04
    0.400   1.227E-03
    0.500   1.914E-03
    0.600   2.751E-03
    0.700   3.736E-03
    0.800   4.867E-03
    0.900   6.144E-03
    1.000   7.563E-03
    1.100   9.125E-03
    1.200   1.083E-02
    1.300   1.267E-02
    1.400   1.464E-02
    1.500   1.676E-02
    1.600   1.901E-02
    1.700   2.140E-02
    1.800   2.393E-02
    1.900   2.660E-02
    2.000   2.941E-02
    2.100   3.236E-02
    2.200   3.546E-02
    2.300   3.871E-02
    2.400   4.210E-02
    2.500   4.566E-02
    2.600   4.937E-02
    2.700   5.324E-02
    2.800   5.728E-02
    2.900   6.150E-02
    3.000   6.589E-02
    3.100   7.047E-02
    3.200   7.523E-02
    3.300   8.019E-02
    3.400   8.534E-02
    3.500   9.071E-02
    3.600   9.628E-02
    3.700   1.021E-01
    3.800   1.081E-01
    3.900   1.144E-01
    4.000   1.208E-01
    4.100   1.276E-01
    4.200   1.346E-01
    4.300   1.418E-01
    4.400   1.494E-01
    4.500   1.572E-01
    4.600   1.653E-01
    4.700   1.737E-01
    4.800   1.824E-01
    4.900   1.915E-01
    5.000   2.008E-01
    5.100   2.106E-01
    5.200   2.206E-01
    5.300   2.311E-01
    5.400   2.419E-01
    5.500   2.531E-01
    5.600   2.647E-01
    5.700   2.767E-01
    5.800   2.892E-01
    5.900   3.021E-01
    6.000   3.155E-01
    6.100   3.294E-01
    6.200   3.437E-01
    6.300   3.586E-01
    6.400   3.741E-01
    6.500   3.901E-01
    6.600   4.066E-01
    6.700   4.238E-01
    6.800   4.416E-01
    6.900   4.601E-01
    7.000   4.792E-01
    7.100   4.991E-01
    7.200   5.196E-01
    7.300   5.410E-01
    7.400   5.631E-01
    7.500   5.860E-01
    7.600   6.098E-01
    7.700   6.344E-01
    7.800   6.600E-01
    7.900   6.865E-01
    8.000   7.140E-01
    8.100   7.425E-01
    8.200   7.721E-01
    8.300   8.028E-01
    8.400   8.346E-01
    8.500   8.676E-01
    8.600   9.018E-01
    8.700   9.373E-01
    8.800   9.741E-01
    8.900   1.012E+00
    9.000   1.052E+00
    9.100   1.093E+00
    9.200   1.136E+00
    9.300   1.180E+00
    9.400   1.225E+00
    9.500   1.273E+00
    9.600   1.322E+00
    9.700   1.373E+00
    9.800   1.426E+00
    9.900   1.481E+00
   10.000   1.538E+00
   10.100   1.597E+00
   10.200   1.658E+00
   10.300   1.722E+00
   10.400   1.787E+00
   10.500   1.855E+00
   10.600   1.926E+00
   10.700   1.999E+00
   10.800   2.074E+00
   10.900   2.153E+00
   11.000   2.234E+00
   11.100   2.318E+00
   11.200   2.404E+00
   11.300   2.494E+00
   11.400   2.587E+00
   11.500   2.683E+00
   11.600   2.782E+00
   11.700   2.885E+00
   11.800   2.990E+00
   11.900   3.099E+00
   12.000   3.212E+00
   12.100   3.328E+00
   12.200   3.448E+00
   12.300   3.570E+00
   12.400   3.697E+00
   12.500   3.827E+00
   12.600   3.960E+00
   12.700   4.096E+00
   12.800   4.236E+00
   12.900   4.379E+00
   13.000   4.524E+00
   13.100   4.672E+00
   13.200   4.823E+00
   13.300   4.975E+00
   13.400   5.130E+00
   13.500   5.285E+00
   13.600   5.442E+00
   13.700   5.598E+00
   13.800   5.755E+00
   13.900   5.911E+00
   14.000   6.066E+00
   14.100   6.218E+00
   14.200   6.369E+00
   14.300   6.516E+00
   14.400   6.660E+00
   14.500   6.800E+00
   14.600   6.935E+00
   14.700   7.065E+00
   14.800   7.189E+00
   14.900   7.307E+00
   15.000   7.418E+00
   15.100   7.522E+00
   15.200   7.618E+00
   15.300   7.706E+00
   15.400   7.786E+00
   15.500   7.857E+00
   15.600   7.918E+00
   15.700   7.970E+00
   15.800   8.011E+00
   15.900   8.042E+00
   16.000   8.063E+00
   16.100   8.072E+00
   16.200   8.070E+00
   16.300   8.057E+00
   16.400   8.032E+00
   16.500   7.997E+00
   16.600   7.950E+00
   16.700   7.892E+00
   16.800   7.825E+00
   16.900   7.747E+00
   17.000   7.660E+00
   17.100   7.564E+00
   17.200   7.461E+00
   17.300   7.350E+00
   17.400   7.233E+00
   17.500   7.111E+00
   17.600   6.983E+00
   17.700   6.852E+00
   17.800   6.717E+00
   17.900   6.580E+00
   18.000   6.440E+00
   18.100   6.300E+00
   18.200   6.158E+00
   18.300   6.016E+00
   18.400   5.875E+00
   18.500   5.733E+00
   18.600   5.593E+00
   18.700   5.454E+00
   18.800   5.316E+00
   18.900   5.181E+00
   19.000   5.047E+00
   19.100   4.915E+00
   19.200   4.786E+00
   19.300   4.659E+00
   19.400   4.535E+00
   19.500   4.414E+00
   19.600   4.296E+00
   19.700   4.180E+00
   19.800   4.068E+00
   19.900   3.958E+00
   20.000   3.852E+00
   20.100   3.749E+00
   20.200   3.649E+00
   20.300   3.552E+00
   20.400   3.457E+00
   20.500   3.366E+00
   20.600   3.278E+00
   20.700   3.193E+00
   20.800   3.110E+00
   20.900   3.031E+00
   21.000   2.954E+00
   21.100   2.879E+00
   21.200   2.807E+00
   21.300   2.738E+00
   21.400   2.671E+00
   21.500   2.606E+00
   21.600   2.543E+00
   21.700   2.483E+00
   21.800   2.424E+00
   21.900   2.368E+00
   22.000   2.313E+00
   22.100   2.260E+00
   22.200   2.209E+00
   22.300   2.160E+00
   22.400   2.112E+00
   22.500   2.066E+00
   22.600   2.021E+00
   22.700   1.978E+00
   22.800   1.936E+00
   22.900   1.896E+00
   23.000   1.857E+00
   23.100   1.819E+00
   23.200   1.782E+00
   23.300   1.746E+00
   23.400   1.712E+00
   23.500   1.678E+00
   23.600   1.646E+00
   23.700   1.614E+00
   23.800   1.583E+00
   23.900   1.554E+00
   24.000   1.525E+00
   24.100   1.497E+00
   24.200   1.469E+00
   24.300   1.443E+00
   24.400   1.417E+00
   24.500   1.392E+00
   24.600   1.368E+00
   24.700   1.344E+00
   24.800   1.321E+00
   24.900   1.299E+00
   25.000   1.277E+00
   25.100   1.256E+00
   25.200   1.235E+00
   25.300   1.215E+00
   25.400   1.195E+00
   25.500   1.176E+00
   25.600   1.157E+00
   25.700   1.139E+00
   25.800   1.121E+00
   25.900   1.104E+00
   26.000   1.087E+00
   26.100   1.071E+00
   26.200   1.055E+00
   26.300   1.039E+00
   26.400   1.024E+00
   26.500   1.009E+00
   26.600   9.939E-01
   26.700   9.796E-01
   26.800   9.657E-01
   26.900   9.520E-01
   27.000   9.387E-01
   27.100   9.256E-01
   27.200   9.129E-01
   27.300   9.004E-01
   27.400   8.882E-01
   27.500   8.762E-01
   27.600   8.645E-01
   27.700   8.531E-01
   27.800   8.419E-01
   27.900   8.309E-01
   28.000   8.202E-01
   28.100   8.097E-01
   28.200   7.993E-01
   28.300   7.892E-01
   28.400   7.794E-01
   28.500   7.697E-01
   28.600   7.602E-01
   28.700   7.508E-01
   28.800   7.417E-01
   28.900   7.327E-01
   29.000   7.240E-01
   29.100   7.153E-01
   29.200   7.069E-01
   29.300   6.986E-01
   29.400   6.905E-01
   29.500   6.825E-01
   29.600   6.746E-01
   29.700   6.669E-01
   29.800   6.594E-01
   29.900   6.520E-01
   30.000   6.447E-01
 
 Z=  34 A=  80  D1M-QRPA
   E[MeV]   fQRPA[mb/MeV]
    0.100   5.470E-05
    0.200   2.187E-04
    0.300   4.919E-04
    0.400   8.740E-04
    0.500   1.365E-03
    0.600   1.963E-03
    0.700   2.669E-03
    0.800   3.482E-03
    0.900   4.400E-03
    1.000   5.424E-03
    1.100   6.552E-03
    1.200   7.784E-03
    1.300   9.119E-03
    1.400   1.056E-02
    1.500   1.210E-02
    1.600   1.374E-02
    1.700   1.548E-02
    1.800   1.733E-02
    1.900   1.928E-02
    2.000   2.134E-02
    2.100   2.351E-02
    2.200   2.578E-02
    2.300   2.817E-02
    2.400   3.066E-02
    2.500   3.328E-02
    2.600   3.602E-02
    2.700   3.888E-02
    2.800   4.187E-02
    2.900   4.499E-02
    3.000   4.825E-02
    3.100   5.165E-02
    3.200   5.520E-02
    3.300   5.890E-02
    3.400   6.276E-02
    3.500   6.678E-02
    3.600   7.097E-02
    3.700   7.534E-02
    3.800   7.988E-02
    3.900   8.462E-02
    4.000   8.955E-02
    4.100   9.468E-02
    4.200   1.000E-01
    4.300   1.056E-01
    4.400   1.114E-01
    4.500   1.174E-01
    4.600   1.236E-01
    4.700   1.302E-01
    4.800   1.369E-01
    4.900   1.440E-01
    5.000   1.513E-01
    5.100   1.589E-01
    5.200   1.669E-01
    5.300   1.751E-01
    5.400   1.837E-01
    5.500   1.926E-01
    5.600   2.019E-01
    5.700   2.115E-01
    5.800   2.215E-01
    5.900   2.319E-01
    6.000   2.427E-01
    6.100   2.540E-01
    6.200   2.657E-01
    6.300   2.778E-01
    6.400   2.905E-01
    6.500   3.036E-01
    6.600   3.172E-01
    6.700   3.314E-01
    6.800   3.462E-01
    6.900   3.615E-01
    7.000   3.775E-01
    7.100   3.940E-01
    7.200   4.113E-01
    7.300   4.292E-01
    7.400   4.478E-01
    7.500   4.672E-01
    7.600   4.874E-01
    7.700   5.083E-01
    7.800   5.302E-01
    7.900   5.529E-01
    8.000   5.765E-01
    8.100   6.011E-01
    8.200   6.266E-01
    8.300   6.533E-01
    8.400   6.810E-01
    8.500   7.098E-01
    8.600   7.398E-01
    8.700   7.711E-01
    8.800   8.036E-01
    8.900   8.375E-01
    9.000   8.728E-01
    9.100   9.096E-01
    9.200   9.479E-01
    9.300   9.877E-01
    9.400   1.029E+00
    9.500   1.073E+00
    9.600   1.118E+00
    9.700   1.165E+00
    9.800   1.213E+00
    9.900   1.264E+00
   10.000   1.318E+00
   10.100   1.373E+00
   10.200   1.430E+00
   10.300   1.490E+00
   10.400   1.553E+00
   10.500   1.618E+00
   10.600   1.685E+00
   10.700   1.756E+00
   10.800   1.829E+00
   10.900   1.906E+00
   11.000   1.985E+00
   11.100   2.068E+00
   11.200   2.154E+00
   11.300   2.244E+00
   11.400   2.337E+00
   11.500   2.434E+00
   11.600   2.535E+00
   11.700   2.640E+00
   11.800   2.749E+00
   11.900   2.862E+00
   12.000   2.979E+00
   12.100   3.101E+00
   12.200   3.226E+00
   12.300   3.357E+00
   12.400   3.492E+00
   12.500   3.631E+00
   12.600   3.775E+00
   12.700   3.922E+00
   12.800   4.075E+00
   12.900   4.231E+00
   13.000   4.391E+00
   13.100   4.555E+00
   13.200   4.722E+00
   13.300   4.892E+00
   13.400   5.064E+00
   13.500   5.239E+00
   13.600   5.415E+00
   13.700   5.592E+00
   13.800   5.769E+00
   13.900   5.945E+00
   14.000   6.121E+00
   14.100   6.294E+00
   14.200   6.465E+00
   14.300   6.632E+00
   14.400   6.796E+00
   14.500   6.955E+00
   14.600   7.108E+00
   14.700   7.255E+00
   14.800   7.397E+00
   14.900   7.531E+00
   15.000   7.658E+00
   15.100   7.777E+00
   15.200   7.888E+00
   15.300   7.990E+00
   15.400   8.083E+00
   15.500   8.166E+00
   15.600   8.240E+00
   15.700   8.303E+00
   15.800   8.354E+00
   15.900   8.395E+00
   16.000   8.423E+00
   16.100   8.439E+00
   16.200   8.442E+00
   16.300   8.432E+00
   16.400   8.409E+00
   16.500   8.373E+00
   16.600   8.323E+00
   16.700   8.262E+00
   16.800   8.187E+00
   16.900   8.102E+00
   17.000   8.005E+00
   17.100   7.898E+00
   17.200   7.781E+00
   17.300   7.656E+00
   17.400   7.524E+00
   17.500   7.386E+00
   17.600   7.241E+00
   17.700   7.093E+00
   17.800   6.941E+00
   17.900   6.786E+00
   18.000   6.629E+00
   18.100   6.470E+00
   18.200   6.311E+00
   18.300   6.152E+00
   18.400   5.994E+00
   18.500   5.836E+00
   18.600   5.679E+00
   18.700   5.523E+00
   18.800   5.370E+00
   18.900   5.219E+00
   19.000   5.069E+00
   19.100   4.923E+00
   19.200   4.779E+00
   19.300   4.638E+00
   19.400   4.500E+00
   19.500   4.366E+00
   19.600   4.235E+00
   19.700   4.107E+00
   19.800   3.983E+00
   19.900   3.863E+00
   20.000   3.746E+00
   20.100   3.633E+00
   20.200   3.523E+00
   20.300   3.418E+00
   20.400   3.316E+00
   20.500   3.217E+00
   20.600   3.122E+00
   20.700   3.031E+00
   20.800   2.943E+00
   20.900   2.858E+00
   21.000   2.776E+00
   21.100   2.698E+00
   21.200   2.622E+00
   21.300   2.549E+00
   21.400   2.480E+00
   21.500   2.412E+00
   21.600   2.348E+00
   21.700   2.286E+00
   21.800   2.226E+00
   21.900   2.168E+00
   22.000   2.113E+00
   22.100   2.060E+00
   22.200   2.008E+00
   22.300   1.959E+00
   22.400   1.911E+00
   22.500   1.865E+00
   22.600   1.821E+00
   22.700   1.778E+00
   22.800   1.737E+00
   22.900   1.697E+00
   23.000   1.659E+00
   23.100   1.622E+00
   23.200   1.586E+00
   23.300   1.552E+00
   23.400   1.519E+00
   23.500   1.486E+00
   23.600   1.455E+00
   23.700   1.425E+00
   23.800   1.396E+00
   23.900   1.367E+00
   24.000   1.340E+00
   24.100   1.314E+00
   24.200   1.288E+00
   24.300   1.263E+00
   24.400   1.239E+00
   24.500   1.215E+00
   24.600   1.193E+00
   24.700   1.171E+00
   24.800   1.149E+00
   24.900   1.128E+00
   25.000   1.108E+00
   25.100   1.089E+00
   25.200   1.070E+00
   25.300   1.051E+00
   25.400   1.033E+00
   25.500   1.015E+00
   25.600   9.984E-01
   25.700   9.818E-01
   25.800   9.656E-01
   25.900   9.499E-01
   26.000   9.345E-01
   26.100   9.196E-01
   26.200   9.050E-01
   26.300   8.908E-01
   26.400   8.770E-01
   26.500   8.635E-01
   26.600   8.503E-01
   26.700   8.375E-01
   26.800   8.249E-01
   26.900   8.127E-01
   27.000   8.008E-01
   27.100   7.891E-01
   27.200   7.777E-01
   27.300   7.666E-01
   27.400   7.557E-01
   27.500   7.451E-01
   27.600   7.347E-01
   27.700   7.246E-01
   27.800   7.146E-01
   27.900   7.049E-01
   28.000   6.954E-01
   28.100   6.861E-01
   28.200   6.770E-01
   28.300   6.681E-01
   28.400   6.594E-01
   28.500   6.509E-01
   28.600   6.425E-01
   28.700   6.344E-01
   28.800   6.264E-01
   28.900   6.185E-01
   29.000   6.108E-01
   29.100   6.033E-01
   29.200   5.959E-01
   29.300   5.886E-01
   29.400   5.815E-01
   29.500   5.746E-01
   29.600   5.677E-01
   29.700   5.610E-01
   29.800   5.545E-01
   29.900   5.480E-01
   30.000   5.417E-01
 
 Z=  34 A=  81  D1M-QRPA-Inter
 E[MeV]  fQRPA[mb/MeV]
    0.100   4.218E-05
    0.200   1.687E-04
    0.300   3.797E-04
    0.400   6.750E-04
    0.500   1.055E-03
    0.600   1.519E-03
    0.700   2.068E-03
    0.800   2.702E-03
    0.900   3.420E-03
    1.000   4.223E-03
    1.100   5.111E-03
    1.200   6.085E-03
    1.300   7.143E-03
    1.400   8.287E-03
    1.500   9.517E-03
    1.600   1.083E-02
    1.700   1.223E-02
    1.800   1.372E-02
    1.900   1.530E-02
    2.000   1.696E-02
    2.100   1.872E-02
    2.200   2.056E-02
    2.300   2.249E-02
    2.400   2.452E-02
    2.500   2.664E-02
    2.600   2.887E-02
    2.700   3.119E-02
    2.800   3.361E-02
    2.900   3.614E-02
    3.000   3.879E-02
    3.100   4.154E-02
    3.200   4.442E-02
    3.300   4.742E-02
    3.400   5.055E-02
    3.500   5.381E-02
    3.600   5.722E-02
    3.700   6.076E-02
    3.800   6.446E-02
    3.900   6.831E-02
    4.000   7.232E-02
    4.100   7.651E-02
    4.200   8.086E-02
    4.300   8.540E-02
    4.400   9.013E-02
    4.500   9.505E-02
    4.600   1.002E-01
    4.700   1.055E-01
    4.800   1.111E-01
    4.900   1.169E-01
    5.000   1.229E-01
    5.100   1.292E-01
    5.200   1.357E-01
    5.300   1.425E-01
    5.400   1.496E-01
    5.500   1.570E-01
    5.600   1.646E-01
    5.700   1.726E-01
    5.800   1.809E-01
    5.900   1.896E-01
    6.000   1.986E-01
    6.100   2.079E-01
    6.200   2.176E-01
    6.300   2.278E-01
    6.400   2.383E-01
    6.500   2.492E-01
    6.600   2.606E-01
    6.700   2.724E-01
    6.800   2.847E-01
    6.900   2.974E-01
    7.000   3.107E-01
    7.100   3.245E-01
    7.200   3.389E-01
    7.300   3.539E-01
    7.400   3.694E-01
    7.500   3.856E-01
    7.600   4.025E-01
    7.700   4.201E-01
    7.800   4.383E-01
    7.900   4.574E-01
    8.000   4.772E-01
    8.100   4.979E-01
    8.200   5.194E-01
    8.300   5.419E-01
    8.400   5.653E-01
    8.500   5.897E-01
    8.600   6.151E-01
    8.700   6.416E-01
    8.800   6.693E-01
    8.900   6.981E-01
    9.000   7.283E-01
    9.100   7.597E-01
    9.200   7.926E-01
    9.300   8.268E-01
    9.400   8.627E-01
    9.500   9.001E-01
    9.600   9.391E-01
    9.700   9.799E-01
    9.800   1.022E+00
    9.900   1.067E+00
   10.000   1.113E+00
   10.100   1.162E+00
   10.200   1.212E+00
   10.300   1.265E+00
   10.400   1.320E+00
   10.500   1.377E+00
   10.600   1.436E+00
   10.700   1.498E+00
   10.800   1.563E+00
   10.900   1.630E+00
   11.000   1.700E+00
   11.100   1.773E+00
   11.200   1.849E+00
   11.300   1.928E+00
   11.400   2.011E+00
   11.500   2.097E+00
   11.600   2.186E+00
   11.700   2.279E+00
   11.800   2.376E+00
   11.900   2.477E+00
   12.000   2.582E+00
   12.100   2.692E+00
   12.200   2.806E+00
   12.300   2.924E+00
   12.400   3.048E+00
   12.500   3.176E+00
   12.600   3.309E+00
   12.700   3.448E+00
   12.800   3.592E+00
   12.900   3.741E+00
   13.000   3.896E+00
   13.100   4.056E+00
   13.200   4.222E+00
   13.300   4.393E+00
   13.400   4.570E+00
   13.500   4.751E+00
   13.600   4.938E+00
   13.700   5.129E+00
   13.800   5.324E+00
   13.900   5.522E+00
   14.000   5.723E+00
   14.100   5.925E+00
   14.200   6.129E+00
   14.300   6.332E+00
   14.400   6.533E+00
   14.500   6.732E+00
   14.600   6.927E+00
   14.700   7.117E+00
   14.800   7.300E+00
   14.900   7.475E+00
   15.000   7.642E+00
   15.100   7.800E+00
   15.200   7.947E+00
   15.300   8.083E+00
   15.400   8.207E+00
   15.500   8.320E+00
   15.600   8.421E+00
   15.700   8.509E+00
   15.800   8.585E+00
   15.900   8.648E+00
   16.000   8.697E+00
   16.100   8.733E+00
   16.200   8.756E+00
   16.300   8.763E+00
   16.400   8.757E+00
   16.500   8.735E+00
   16.600   8.698E+00
   16.700   8.645E+00
   16.800   8.577E+00
   16.900   8.494E+00
   17.000   8.396E+00
   17.100   8.283E+00
   17.200   8.157E+00
   17.300   8.019E+00
   17.400   7.870E+00
   17.500   7.711E+00
   17.600   7.545E+00
   17.700   7.371E+00
   17.800   7.193E+00
   17.900   7.012E+00
   18.000   6.829E+00
   18.100   6.645E+00
   18.200   6.461E+00
   18.300   6.279E+00
   18.400   6.100E+00
   18.500   5.924E+00
   18.600   5.751E+00
   18.700   5.582E+00
   18.800   5.418E+00
   18.900   5.258E+00
   19.000   5.103E+00
   19.100   4.953E+00
   19.200   4.807E+00
   19.300   4.667E+00
   19.400   4.530E+00
   19.500   4.399E+00
   19.600   4.271E+00
   19.700   4.148E+00
   19.800   4.029E+00
   19.900   3.914E+00
   20.000   3.802E+00
   20.100   3.694E+00
   20.200   3.589E+00
   20.300   3.488E+00
   20.400   3.389E+00
   20.500   3.293E+00
   20.600   3.199E+00
   20.700   3.108E+00
   20.800   3.020E+00
   20.900   2.934E+00
   21.000   2.850E+00
   21.100   2.769E+00
   21.200   2.690E+00
   21.300   2.613E+00
   21.400   2.538E+00
   21.500   2.466E+00
   21.600   2.395E+00
   21.700   2.327E+00
   21.800   2.261E+00
   21.900   2.197E+00
   22.000   2.135E+00
   22.100   2.075E+00
   22.200   2.017E+00
   22.300   1.961E+00
   22.400   1.907E+00
   22.500   1.855E+00
   22.600   1.805E+00
   22.700   1.756E+00
   22.800   1.709E+00
   22.900   1.664E+00
   23.000   1.621E+00
   23.100   1.579E+00
   23.200   1.539E+00
   23.300   1.501E+00
   23.400   1.464E+00
   23.500   1.428E+00
   23.600   1.393E+00
   23.700   1.360E+00
   23.800   1.328E+00
   23.900   1.297E+00
   24.000   1.268E+00
   24.100   1.239E+00
   24.200   1.212E+00
   24.300   1.185E+00
   24.400   1.160E+00
   24.500   1.135E+00
   24.600   1.111E+00
   24.700   1.088E+00
   24.800   1.066E+00
   24.900   1.044E+00
   25.000   1.023E+00
   25.100   1.003E+00
   25.200   9.838E-01
   25.300   9.650E-01
   25.400   9.467E-01
   25.500   9.290E-01
   25.600   9.118E-01
   25.700   8.952E-01
   25.800   8.791E-01
   25.900   8.634E-01
   26.000   8.482E-01
   26.100   8.334E-01
   26.200   8.191E-01
   26.300   8.051E-01
   26.400   7.916E-01
   26.500   7.784E-01
   26.600   7.656E-01
   26.700   7.531E-01
   26.800   7.410E-01
   26.900   7.292E-01
   27.000   7.177E-01
   27.100   7.065E-01
   27.200   6.955E-01
   27.300   6.849E-01
   27.400   6.745E-01
   27.500   6.644E-01
   27.600   6.545E-01
   27.700   6.449E-01
   27.800   6.355E-01
   27.900   6.263E-01
   28.000   6.174E-01
   28.100   6.086E-01
   28.200   6.001E-01
   28.300   5.917E-01
   28.400   5.836E-01
   28.500   5.756E-01
   28.600   5.678E-01
   28.700   5.602E-01
   28.800   5.527E-01
   28.900   5.454E-01
   29.000   5.383E-01
   29.100   5.313E-01
   29.200   5.244E-01
   29.300   5.178E-01
   29.400   5.112E-01
   29.500   5.048E-01
   29.600   4.985E-01
   29.700   4.923E-01
   29.800   4.863E-01
   29.900   4.804E-01
   30.000   4.746E-01
 
 Z=  34 A=  82  D1M-QRPA
   E[MeV]   fQRPA[mb/MeV]
    0.100   3.222E-05
    0.200   1.289E-04
    0.300   2.902E-04
    0.400   5.164E-04
    0.500   8.077E-04
    0.600   1.164E-03
    0.700   1.587E-03
    0.800   2.077E-03
    0.900   2.633E-03
    1.000   3.257E-03
    1.100   3.950E-03
    1.200   4.711E-03
    1.300   5.542E-03
    1.400   6.444E-03
    1.500   7.416E-03
    1.600   8.459E-03
    1.700   9.574E-03
    1.800   1.076E-02
    1.900   1.202E-02
    2.000   1.335E-02
    2.100   1.476E-02
    2.200   1.624E-02
    2.300   1.779E-02
    2.400   1.942E-02
    2.500   2.113E-02
    2.600   2.291E-02
    2.700   2.478E-02
    2.800   2.673E-02
    2.900   2.876E-02
    3.000   3.088E-02
    3.100   3.310E-02
    3.200   3.541E-02
    3.300   3.782E-02
    3.400   4.033E-02
    3.500   4.295E-02
    3.600   4.569E-02
    3.700   4.854E-02
    3.800   5.152E-02
    3.900   5.462E-02
    4.000   5.786E-02
    4.100   6.124E-02
    4.200   6.476E-02
    4.300   6.843E-02
    4.400   7.225E-02
    4.500   7.624E-02
    4.600   8.040E-02
    4.700   8.473E-02
    4.800   8.925E-02
    4.900   9.396E-02
    5.000   9.887E-02
    5.100   1.040E-01
    5.200   1.093E-01
    5.300   1.149E-01
    5.400   1.207E-01
    5.500   1.267E-01
    5.600   1.330E-01
    5.700   1.396E-01
    5.800   1.464E-01
    5.900   1.535E-01
    6.000   1.609E-01
    6.100   1.686E-01
    6.200   1.766E-01
    6.300   1.849E-01
    6.400   1.936E-01
    6.500   2.026E-01
    6.600   2.120E-01
    6.700   2.217E-01
    6.800   2.318E-01
    6.900   2.424E-01
    7.000   2.533E-01
    7.100   2.647E-01
    7.200   2.766E-01
    7.300   2.890E-01
    7.400   3.019E-01
    7.500   3.153E-01
    7.600   3.293E-01
    7.700   3.438E-01
    7.800   3.590E-01
    7.900   3.748E-01
    8.000   3.913E-01
    8.100   4.086E-01
    8.200   4.265E-01
    8.300   4.452E-01
    8.400   4.648E-01
    8.500   4.852E-01
    8.600   5.065E-01
    8.700   5.288E-01
    8.800   5.521E-01
    8.900   5.764E-01
    9.000   6.019E-01
    9.100   6.285E-01
    9.200   6.564E-01
    9.300   6.856E-01
    9.400   7.162E-01
    9.500   7.482E-01
    9.600   7.817E-01
    9.700   8.167E-01
    9.800   8.534E-01
    9.900   8.918E-01
   10.000   9.319E-01
   10.100   9.738E-01
   10.200   1.018E+00
   10.300   1.063E+00
   10.400   1.111E+00
   10.500   1.161E+00
   10.600   1.212E+00
   10.700   1.267E+00
   10.800   1.323E+00
   10.900   1.381E+00
   11.000   1.442E+00
   11.100   1.506E+00
   11.200   1.572E+00
   11.300   1.642E+00
   11.400   1.714E+00
   11.500   1.789E+00
   11.600   1.867E+00
   11.700   1.949E+00
   11.800   2.035E+00
   11.900   2.124E+00
   12.000   2.217E+00
   12.100   2.315E+00
   12.200   2.417E+00
   12.300   2.523E+00
   12.400   2.635E+00
   12.500   2.752E+00
   12.600   2.874E+00
   12.700   3.002E+00
   12.800   3.136E+00
   12.900   3.277E+00
   13.000   3.424E+00
   13.100   3.578E+00
   13.200   3.739E+00
   13.300   3.908E+00
   13.400   4.084E+00
   13.500   4.269E+00
   13.600   4.460E+00
   13.700   4.660E+00
   13.800   4.866E+00
   13.900   5.080E+00
   14.000   5.300E+00
   14.100   5.525E+00
   14.200   5.755E+00
   14.300   5.987E+00
   14.400   6.221E+00
   14.500   6.455E+00
   14.600   6.687E+00
   14.700   6.914E+00
   14.800   7.136E+00
   14.900   7.350E+00
   15.000   7.555E+00
   15.100   7.749E+00
   15.200   7.930E+00
   15.300   8.099E+00
   15.400   8.255E+00
   15.500   8.397E+00
   15.600   8.525E+00
   15.700   8.639E+00
   15.800   8.739E+00
   15.900   8.825E+00
   16.000   8.896E+00
   16.100   8.953E+00
   16.200   8.995E+00
   16.300   9.022E+00
   16.400   9.033E+00
   16.500   9.027E+00
   16.600   9.003E+00
   16.700   8.961E+00
   16.800   8.901E+00
   16.900   8.821E+00
   17.000   8.723E+00
   17.100   8.606E+00
   17.200   8.471E+00
   17.300   8.320E+00
   17.400   8.154E+00
   17.500   7.975E+00
   17.600   7.786E+00
   17.700   7.588E+00
   17.800   7.385E+00
   17.900   7.177E+00
   18.000   6.968E+00
   18.100   6.759E+00
   18.200   6.552E+00
   18.300   6.348E+00
   18.400   6.149E+00
   18.500   5.956E+00
   18.600   5.769E+00
   18.700   5.588E+00
   18.800   5.414E+00
   18.900   5.248E+00
   19.000   5.088E+00
   19.100   4.936E+00
   19.200   4.790E+00
   19.300   4.651E+00
   19.400   4.517E+00
   19.500   4.390E+00
   19.600   4.268E+00
   19.700   4.150E+00
   19.800   4.038E+00
   19.900   3.929E+00
   20.000   3.824E+00
   20.100   3.721E+00
   20.200   3.622E+00
   20.300   3.525E+00
   20.400   3.431E+00
   20.500   3.338E+00
   20.600   3.247E+00
   20.700   3.157E+00
   20.800   3.069E+00
   20.900   2.983E+00
   21.000   2.898E+00
   21.100   2.815E+00
   21.200   2.733E+00
   21.300   2.652E+00
   21.400   2.573E+00
   21.500   2.496E+00
   21.600   2.421E+00
   21.700   2.347E+00
   21.800   2.275E+00
   21.900   2.205E+00
   22.000   2.137E+00
   22.100   2.071E+00
   22.200   2.007E+00
   22.300   1.945E+00
   22.400   1.885E+00
   22.500   1.827E+00
   22.600   1.772E+00
   22.700   1.718E+00
   22.800   1.666E+00
   22.900   1.617E+00
   23.000   1.569E+00
   23.100   1.523E+00
   23.200   1.480E+00
   23.300   1.437E+00
   23.400   1.397E+00
   23.500   1.359E+00
   23.600   1.322E+00
   23.700   1.286E+00
   23.800   1.252E+00
   23.900   1.219E+00
   24.000   1.188E+00
   24.100   1.158E+00
   24.200   1.129E+00
   24.300   1.102E+00
   24.400   1.075E+00
   24.500   1.050E+00
   24.600   1.025E+00
   24.700   1.002E+00
   24.800   9.790E-01
   24.900   9.572E-01
   25.000   9.362E-01
   25.100   9.160E-01
   25.200   8.964E-01
   25.300   8.776E-01
   25.400   8.594E-01
   25.500   8.419E-01
   25.600   8.249E-01
   25.700   8.085E-01
   25.800   7.927E-01
   25.900   7.774E-01
   26.000   7.626E-01
   26.100   7.482E-01
   26.200   7.343E-01
   26.300   7.208E-01
   26.400   7.078E-01
   26.500   6.951E-01
   26.600   6.828E-01
   26.700   6.709E-01
   26.800   6.593E-01
   26.900   6.480E-01
   27.000   6.371E-01
   27.100   6.265E-01
   27.200   6.162E-01
   27.300   6.061E-01
   27.400   5.964E-01
   27.500   5.868E-01
   27.600   5.776E-01
   27.700   5.686E-01
   27.800   5.598E-01
   27.900   5.512E-01
   28.000   5.429E-01
   28.100   5.348E-01
   28.200   5.268E-01
   28.300   5.191E-01
   28.400   5.115E-01
   28.500   5.042E-01
   28.600   4.970E-01
   28.700   4.900E-01
   28.800   4.831E-01
   28.900   4.764E-01
   29.000   4.699E-01
   29.100   4.635E-01
   29.200   4.572E-01
   29.300   4.511E-01
   29.400   4.451E-01
   29.500   4.393E-01
   29.600   4.335E-01
   29.700   4.279E-01
   29.800   4.225E-01
   29.900   4.171E-01
   30.000   4.118E-01
 
 Z=  34 A=  83  D1M-QRPA-Inter
 E[MeV]  fQRPA[mb/MeV]
    0.100   2.993E-05
    0.200   1.197E-04
    0.300   2.696E-04
    0.400   4.796E-04
    0.500   7.501E-04
    0.600   1.081E-03
    0.700   1.474E-03
    0.800   1.928E-03
    0.900   2.444E-03
    1.000   3.023E-03
    1.100   3.666E-03
    1.200   4.373E-03
    1.300   5.144E-03
    1.400   5.981E-03
    1.500   6.884E-03
    1.600   7.854E-03
    1.700   8.892E-03
    1.800   9.999E-03
    1.900   1.118E-02
    2.000   1.242E-02
    2.100   1.374E-02
    2.200   1.513E-02
    2.300   1.659E-02
    2.400   1.813E-02
    2.500   1.975E-02
    2.600   2.144E-02
    2.700   2.321E-02
    2.800   2.507E-02
    2.900   2.701E-02
    3.000   2.904E-02
    3.100   3.116E-02
    3.200   3.337E-02
    3.300   3.569E-02
    3.400   3.810E-02
    3.500   4.062E-02
    3.600   4.324E-02
    3.700   4.598E-02
    3.800   4.884E-02
    3.900   5.181E-02
    4.000   5.492E-02
    4.100   5.815E-02
    4.200   6.152E-02
    4.300   6.504E-02
    4.400   6.870E-02
    4.500   7.251E-02
    4.600   7.648E-02
    4.700   8.062E-02
    4.800   8.494E-02
    4.900   8.943E-02
    5.000   9.411E-02
    5.100   9.898E-02
    5.200   1.041E-01
    5.300   1.094E-01
    5.400   1.149E-01
    5.500   1.206E-01
    5.600   1.266E-01
    5.700   1.329E-01
    5.800   1.394E-01
    5.900   1.461E-01
    6.000   1.532E-01
    6.100   1.605E-01
    6.200   1.682E-01
    6.300   1.762E-01
    6.400   1.845E-01
    6.500   1.932E-01
    6.600   2.022E-01
    6.700   2.116E-01
    6.800   2.215E-01
    6.900   2.317E-01
    7.000   2.424E-01
    7.100   2.536E-01
    7.200   2.652E-01
    7.300   2.774E-01
    7.400   2.901E-01
    7.500   3.034E-01
    7.600   3.173E-01
    7.700   3.319E-01
    7.800   3.471E-01
    7.900   3.630E-01
    8.000   3.797E-01
    8.100   3.972E-01
    8.200   4.155E-01
    8.300   4.348E-01
    8.400   4.549E-01
    8.500   4.761E-01
    8.600   4.983E-01
    8.700   5.216E-01
    8.800   5.462E-01
    8.900   5.720E-01
    9.000   5.992E-01
    9.100   6.278E-01
    9.200   6.579E-01
    9.300   6.897E-01
    9.400   7.232E-01
    9.500   7.585E-01
    9.600   7.958E-01
    9.700   8.351E-01
    9.800   8.767E-01
    9.900   9.205E-01
   10.000   9.668E-01
   10.100   1.016E+00
   10.200   1.067E+00
   10.300   1.122E+00
   10.400   1.180E+00
   10.500   1.240E+00
   10.600   1.305E+00
   10.700   1.373E+00
   10.800   1.444E+00
   10.900   1.520E+00
   11.000   1.600E+00
   11.100   1.684E+00
   11.200   1.773E+00
   11.300   1.867E+00
   11.400   1.966E+00
   11.500   2.070E+00
   11.600   2.179E+00
   11.700   2.294E+00
   11.800   2.415E+00
   11.900   2.542E+00
   12.000   2.674E+00
   12.100   2.813E+00
   12.200   2.958E+00
   12.300   3.109E+00
   12.400   3.266E+00
   12.500   3.430E+00
   12.600   3.600E+00
   12.700   3.776E+00
   12.800   3.959E+00
   12.900   4.147E+00
   13.000   4.342E+00
   13.100   4.541E+00
   13.200   4.746E+00
   13.300   4.955E+00
   13.400   5.167E+00
   13.500   5.380E+00
   13.600   5.595E+00
   13.700   5.808E+00
   13.800   6.019E+00
   13.900   6.226E+00
   14.000   6.428E+00
   14.100   6.622E+00
   14.200   6.807E+00
   14.300   6.983E+00
   14.400   7.146E+00
   14.500   7.298E+00
   14.600   7.437E+00
   14.700   7.561E+00
   14.800   7.671E+00
   14.900   7.766E+00
   15.000   7.846E+00
   15.100   7.908E+00
   15.200   7.954E+00
   15.300   7.982E+00
   15.400   7.992E+00
   15.500   7.984E+00
   15.600   7.957E+00
   15.700   7.913E+00
   15.800   7.852E+00
   15.900   7.775E+00
   16.000   7.683E+00
   16.100   7.578E+00
   16.200   7.462E+00
   16.300   7.336E+00
   16.400   7.202E+00
   16.500   7.060E+00
   16.600   6.913E+00
   16.700   6.761E+00
   16.800   6.605E+00
   16.900   6.445E+00
   17.000   6.283E+00
   17.100   6.118E+00
   17.200   5.951E+00
   17.300   5.783E+00
   17.400   5.614E+00
   17.500   5.445E+00
   17.600   5.276E+00
   17.700   5.108E+00
   17.800   4.942E+00
   17.900   4.778E+00
   18.000   4.618E+00
   18.100   4.460E+00
   18.200   4.307E+00
   18.300   4.159E+00
   18.400   4.015E+00
   18.500   3.877E+00
   18.600   3.744E+00
   18.700   3.617E+00
   18.800   3.496E+00
   18.900   3.380E+00
   19.000   3.270E+00
   19.100   3.166E+00
   19.200   3.067E+00
   19.300   2.973E+00
   19.400   2.884E+00
   19.500   2.800E+00
   19.600   2.720E+00
   19.700   2.645E+00
   19.800   2.574E+00
   19.900   2.507E+00
   20.000   2.443E+00
   20.100   2.382E+00
   20.200   2.325E+00
   20.300   2.270E+00
   20.400   2.218E+00
   20.500   2.169E+00
   20.600   2.121E+00
   20.700   2.076E+00
   20.800   2.033E+00
   20.900   1.992E+00
   21.000   1.952E+00
   21.100   1.913E+00
   21.200   1.876E+00
   21.300   1.839E+00
   21.400   1.804E+00
   21.500   1.769E+00
   21.600   1.734E+00
   21.700   1.700E+00
   21.800   1.666E+00
   21.900   1.632E+00
   22.000   1.597E+00
   22.100   1.563E+00
   22.200   1.528E+00
   22.300   1.493E+00
   22.400   1.459E+00
   22.500   1.424E+00
   22.600   1.389E+00
   22.700   1.355E+00
   22.800   1.321E+00
   22.900   1.287E+00
   23.000   1.254E+00
   23.100   1.221E+00
   23.200   1.188E+00
   23.300   1.157E+00
   23.400   1.125E+00
   23.500   1.095E+00
   23.600   1.065E+00
   23.700   1.036E+00
   23.800   1.008E+00
   23.900   9.810E-01
   24.000   9.547E-01
   24.100   9.294E-01
   24.200   9.051E-01
   24.300   8.817E-01
   24.400   8.592E-01
   24.500   8.376E-01
   24.600   8.169E-01
   24.700   7.970E-01
   24.800   7.779E-01
   24.900   7.596E-01
   25.000   7.421E-01
   25.100   7.252E-01
   25.200   7.090E-01
   25.300   6.935E-01
   25.400   6.785E-01
   25.500   6.642E-01
   25.600   6.503E-01
   25.700   6.370E-01
   25.800   6.242E-01
   25.900   6.118E-01
   26.000   5.999E-01
   26.100   5.884E-01
   26.200   5.773E-01
   26.300   5.666E-01
   26.400   5.562E-01
   26.500   5.461E-01
   26.600   5.364E-01
   26.700   5.270E-01
   26.800   5.179E-01
   26.900   5.090E-01
   27.000   5.005E-01
   27.100   4.921E-01
   27.200   4.841E-01
   27.300   4.762E-01
   27.400   4.686E-01
   27.500   4.612E-01
   27.600   4.540E-01
   27.700   4.470E-01
   27.800   4.402E-01
   27.900   4.335E-01
   28.000   4.271E-01
   28.100   4.208E-01
   28.200   4.146E-01
   28.300   4.087E-01
   28.400   4.028E-01
   28.500   3.971E-01
   28.600   3.916E-01
   28.700   3.862E-01
   28.800   3.809E-01
   28.900   3.757E-01
   29.000   3.707E-01
   29.100   3.657E-01
   29.200   3.609E-01
   29.300   3.562E-01
   29.400   3.516E-01
   29.500   3.471E-01
   29.600   3.427E-01
   29.700   3.383E-01
   29.800   3.341E-01
   29.900   3.300E-01
   30.000   3.259E-01
 
 Z=  34 A=  84  D1M-QRPA
   E[MeV]   fQRPA[mb/MeV]
    0.100   2.535E-05
    0.200   1.014E-04
    0.300   2.283E-04
    0.400   4.062E-04
    0.500   6.352E-04
    0.600   9.157E-04
    0.700   1.248E-03
    0.800   1.632E-03
    0.900   2.069E-03
    1.000   2.559E-03
    1.100   3.103E-03
    1.200   3.701E-03
    1.300   4.354E-03
    1.400   5.063E-03
    1.500   5.828E-03
    1.600   6.651E-03
    1.700   7.532E-03
    1.800   8.473E-03
    1.900   9.474E-03
    2.000   1.054E-02
    2.100   1.166E-02
    2.200   1.286E-02
    2.300   1.411E-02
    2.400   1.544E-02
    2.500   1.683E-02
    2.600   1.830E-02
    2.700   1.983E-02
    2.800   2.145E-02
    2.900   2.314E-02
    3.000   2.491E-02
    3.100   2.676E-02
    3.200   2.869E-02
    3.300   3.071E-02
    3.400   3.282E-02
    3.500   3.502E-02
    3.600   3.732E-02
    3.700   3.972E-02
    3.800   4.222E-02
    3.900   4.482E-02
    4.000   4.753E-02
    4.100   5.036E-02
    4.200   5.330E-02
    4.300   5.637E-02
    4.400   5.956E-02
    4.500   6.289E-02
    4.600   6.635E-02
    4.700   6.996E-02
    4.800   7.371E-02
    4.900   7.762E-02
    5.000   8.169E-02
    5.100   8.592E-02
    5.200   9.034E-02
    5.300   9.493E-02
    5.400   9.972E-02
    5.500   1.047E-01
    5.600   1.099E-01
    5.700   1.153E-01
    5.800   1.210E-01
    5.900   1.269E-01
    6.000   1.330E-01
    6.100   1.394E-01
    6.200   1.461E-01
    6.300   1.531E-01
    6.400   1.604E-01
    6.500   1.680E-01
    6.600   1.759E-01
    6.700   1.842E-01
    6.800   1.929E-01
    6.900   2.020E-01
    7.000   2.115E-01
    7.100   2.215E-01
    7.200   2.319E-01
    7.300   2.428E-01
    7.400   2.543E-01
    7.500   2.663E-01
    7.600   2.789E-01
    7.700   2.921E-01
    7.800   3.060E-01
    7.900   3.206E-01
    8.000   3.360E-01
    8.100   3.522E-01
    8.200   3.692E-01
    8.300   3.871E-01
    8.400   4.060E-01
    8.500   4.260E-01
    8.600   4.470E-01
    8.700   4.693E-01
    8.800   4.928E-01
    8.900   5.176E-01
    9.000   5.440E-01
    9.100   5.718E-01
    9.200   6.014E-01
    9.300   6.327E-01
    9.400   6.660E-01
    9.500   7.013E-01
    9.600   7.388E-01
    9.700   7.788E-01
    9.800   8.213E-01
    9.900   8.665E-01
   10.000   9.148E-01
   10.100   9.662E-01
   10.200   1.021E+00
   10.300   1.080E+00
   10.400   1.142E+00
   10.500   1.209E+00
   10.600   1.280E+00
   10.700   1.356E+00
   10.800   1.438E+00
   10.900   1.525E+00
   11.000   1.618E+00
   11.100   1.717E+00
   11.200   1.823E+00
   11.300   1.936E+00
   11.400   2.056E+00
   11.500   2.184E+00
   11.600   2.319E+00
   11.700   2.463E+00
   11.800   2.614E+00
   11.900   2.774E+00
   12.000   2.942E+00
   12.100   3.118E+00
   12.200   3.302E+00
   12.300   3.493E+00
   12.400   3.692E+00
   12.500   3.898E+00
   12.600   4.112E+00
   12.700   4.331E+00
   12.800   4.556E+00
   12.900   4.786E+00
   13.000   5.020E+00
   13.100   5.257E+00
   13.200   5.493E+00
   13.300   5.729E+00
   13.400   5.960E+00
   13.500   6.184E+00
   13.600   6.400E+00
   13.700   6.602E+00
   13.800   6.790E+00
   13.900   6.959E+00
   14.000   7.109E+00
   14.100   7.237E+00
   14.200   7.343E+00
   14.300   7.426E+00
   14.400   7.486E+00
   14.500   7.525E+00
   14.600   7.542E+00
   14.700   7.541E+00
   14.800   7.521E+00
   14.900   7.484E+00
   15.000   7.430E+00
   15.100   7.361E+00
   15.200   7.275E+00
   15.300   7.174E+00
   15.400   7.056E+00
   15.500   6.922E+00
   15.600   6.773E+00
   15.700   6.610E+00
   15.800   6.434E+00
   15.900   6.247E+00
   16.000   6.051E+00
   16.100   5.850E+00
   16.200   5.645E+00
   16.300   5.440E+00
   16.400   5.236E+00
   16.500   5.036E+00
   16.600   4.841E+00
   16.700   4.652E+00
   16.800   4.469E+00
   16.900   4.294E+00
   17.000   4.127E+00
   17.100   3.966E+00
   17.200   3.813E+00
   17.300   3.666E+00
   17.400   3.525E+00
   17.500   3.390E+00
   17.600   3.260E+00
   17.700   3.136E+00
   17.800   3.016E+00
   17.900   2.901E+00
   18.000   2.791E+00
   18.100   2.684E+00
   18.200   2.582E+00
   18.300   2.485E+00
   18.400   2.391E+00
   18.500   2.302E+00
   18.600   2.216E+00
   18.700   2.135E+00
   18.800   2.058E+00
   18.900   1.985E+00
   19.000   1.917E+00
   19.100   1.852E+00
   19.200   1.790E+00
   19.300   1.733E+00
   19.400   1.679E+00
   19.500   1.629E+00
   19.600   1.581E+00
   19.700   1.537E+00
   19.800   1.497E+00
   19.900   1.459E+00
   20.000   1.423E+00
   20.100   1.391E+00
   20.200   1.361E+00
   20.300   1.333E+00
   20.400   1.308E+00
   20.500   1.285E+00
   20.600   1.264E+00
   20.700   1.245E+00
   20.800   1.228E+00
   20.900   1.213E+00
   21.000   1.199E+00
   21.100   1.186E+00
   21.200   1.174E+00
   21.300   1.163E+00
   21.400   1.153E+00
   21.500   1.143E+00
   21.600   1.133E+00
   21.700   1.123E+00
   21.800   1.112E+00
   21.900   1.101E+00
   22.000   1.088E+00
   22.100   1.075E+00
   22.200   1.061E+00
   22.300   1.046E+00
   22.400   1.029E+00
   22.500   1.012E+00
   22.600   9.938E-01
   22.700   9.748E-01
   22.800   9.550E-01
   22.900   9.347E-01
   23.000   9.137E-01
   23.100   8.923E-01
   23.200   8.706E-01
   23.300   8.487E-01
   23.400   8.266E-01
   23.500   8.047E-01
   23.600   7.829E-01
   23.700   7.614E-01
   23.800   7.403E-01
   23.900   7.196E-01
   24.000   6.996E-01
   24.100   6.802E-01
   24.200   6.615E-01
   24.300   6.434E-01
   24.400   6.261E-01
   24.500   6.095E-01
   24.600   5.935E-01
   24.700   5.783E-01
   24.800   5.637E-01
   24.900   5.497E-01
   25.000   5.364E-01
   25.100   5.236E-01
   25.200   5.114E-01
   25.300   4.997E-01
   25.400   4.886E-01
   25.500   4.778E-01
   25.600   4.676E-01
   25.700   4.577E-01
   25.800   4.482E-01
   25.900   4.392E-01
   26.000   4.304E-01
   26.100   4.220E-01
   26.200   4.139E-01
   26.300   4.061E-01
   26.400   3.986E-01
   26.500   3.913E-01
   26.600   3.843E-01
   26.700   3.775E-01
   26.800   3.710E-01
   26.900   3.646E-01
   27.000   3.585E-01
   27.100   3.526E-01
   27.200   3.468E-01
   27.300   3.412E-01
   27.400   3.358E-01
   27.500   3.305E-01
   27.600   3.254E-01
   27.700   3.205E-01
   27.800   3.156E-01
   27.900   3.110E-01
   28.000   3.064E-01
   28.100   3.019E-01
   28.200   2.976E-01
   28.300   2.934E-01
   28.400   2.893E-01
   28.500   2.853E-01
   28.600   2.814E-01
   28.700   2.775E-01
   28.800   2.738E-01
   28.900   2.702E-01
   29.000   2.666E-01
   29.100   2.632E-01
   29.200   2.598E-01
   29.300   2.565E-01
   29.400   2.532E-01
   29.500   2.501E-01
   29.600   2.470E-01
   29.700   2.439E-01
   29.800   2.410E-01
   29.900   2.381E-01
   30.000   2.352E-01
 
 Z=  34 A=  85  D1M-QRPA-Inter
 E[MeV]  fQRPA[mb/MeV]
    0.100   8.935E-05
    0.200   3.564E-04
    0.300   7.981E-04
    0.400   1.410E-03
    0.500   2.184E-03
    0.600   3.114E-03
    0.700   4.189E-03
    0.800   5.400E-03
    0.900   6.735E-03
    1.000   8.183E-03
    1.100   9.733E-03
    1.200   1.137E-02
    1.300   1.309E-02
    1.400   1.489E-02
    1.500   1.674E-02
    1.600   1.865E-02
    1.700   2.060E-02
    1.800   2.260E-02
    1.900   2.465E-02
    2.000   2.672E-02
    2.100   2.884E-02
    2.200   3.100E-02
    2.300   3.319E-02
    2.400   3.543E-02
    2.500   3.772E-02
    2.600   4.005E-02
    2.700   4.244E-02
    2.800   4.490E-02
    2.900   4.742E-02
    3.000   5.002E-02
    3.100   5.270E-02
    3.200   5.548E-02
    3.300   5.834E-02
    3.400   6.131E-02
    3.500   6.440E-02
    3.600   6.760E-02
    3.700   7.092E-02
    3.800   7.439E-02
    3.900   7.799E-02
    4.000   8.174E-02
    4.100   8.566E-02
    4.200   8.973E-02
    4.300   9.399E-02
    4.400   9.842E-02
    4.500   1.030E-01
    4.600   1.079E-01
    4.700   1.129E-01
    4.800   1.182E-01
    4.900   1.237E-01
    5.000   1.294E-01
    5.100   1.354E-01
    5.200   1.416E-01
    5.300   1.481E-01
    5.400   1.549E-01
    5.500   1.620E-01
    5.600   1.694E-01
    5.700   1.771E-01
    5.800   1.852E-01
    5.900   1.937E-01
    6.000   2.025E-01
    6.100   2.117E-01
    6.200   2.213E-01
    6.300   2.313E-01
    6.400   2.418E-01
    6.500   2.527E-01
    6.600   2.641E-01
    6.700   2.760E-01
    6.800   2.885E-01
    6.900   3.015E-01
    7.000   3.151E-01
    7.100   3.293E-01
    7.200   3.441E-01
    7.300   3.596E-01
    7.400   3.758E-01
    7.500   3.927E-01
    7.600   4.103E-01
    7.700   4.287E-01
    7.800   4.479E-01
    7.900   4.680E-01
    8.000   4.890E-01
    8.100   5.109E-01
    8.200   5.338E-01
    8.300   5.577E-01
    8.400   5.828E-01
    8.500   6.090E-01
    8.600   6.364E-01
    8.700   6.651E-01
    8.800   6.951E-01
    8.900   7.266E-01
    9.000   7.597E-01
    9.100   7.943E-01
    9.200   8.307E-01
    9.300   8.689E-01
    9.400   9.091E-01
    9.500   9.513E-01
    9.600   9.957E-01
    9.700   1.042E+00
    9.800   1.092E+00
    9.900   1.143E+00
   10.000   1.198E+00
   10.100   1.255E+00
   10.200   1.316E+00
   10.300   1.380E+00
   10.400   1.448E+00
   10.500   1.519E+00
   10.600   1.594E+00
   10.700   1.673E+00
   10.800   1.757E+00
   10.900   1.845E+00
   11.000   1.939E+00
   11.100   2.037E+00
   11.200   2.141E+00
   11.300   2.250E+00
   11.400   2.365E+00
   11.500   2.487E+00
   11.600   2.614E+00
   11.700   2.748E+00
   11.800   2.888E+00
   11.900   3.036E+00
   12.000   3.189E+00
   12.100   3.350E+00
   12.200   3.517E+00
   12.300   3.692E+00
   12.400   3.873E+00
   12.500   4.060E+00
   12.600   4.255E+00
   12.700   4.456E+00
   12.800   4.663E+00
   12.900   4.876E+00
   13.000   5.094E+00
   13.100   5.316E+00
   13.200   5.542E+00
   13.300   5.771E+00
   13.400   5.999E+00
   13.500   6.227E+00
   13.600   6.453E+00
   13.700   6.673E+00
   13.800   6.887E+00
   13.900   7.092E+00
   14.000   7.287E+00
   14.100   7.469E+00
   14.200   7.637E+00
   14.300   7.791E+00
   14.400   7.928E+00
   14.500   8.050E+00
   14.600   8.154E+00
   14.700   8.242E+00
   14.800   8.312E+00
   14.900   8.365E+00
   15.000   8.400E+00
   15.100   8.417E+00
   15.200   8.416E+00
   15.300   8.396E+00
   15.400   8.357E+00
   15.500   8.299E+00
   15.600   8.221E+00
   15.700   8.125E+00
   15.800   8.012E+00
   15.900   7.882E+00
   16.000   7.738E+00
   16.100   7.582E+00
   16.200   7.415E+00
   16.300   7.241E+00
   16.400   7.061E+00
   16.500   6.877E+00
   16.600   6.691E+00
   16.700   6.504E+00
   16.800   6.319E+00
   16.900   6.135E+00
   17.000   5.954E+00
   17.100   5.776E+00
   17.200   5.602E+00
   17.300   5.432E+00
   17.400   5.267E+00
   17.500   5.105E+00
   17.600   4.948E+00
   17.700   4.796E+00
   17.800   4.648E+00
   17.900   4.504E+00
   18.000   4.365E+00
   18.100   4.230E+00
   18.200   4.100E+00
   18.300   3.974E+00
   18.400   3.852E+00
   18.500   3.735E+00
   18.600   3.622E+00
   18.700   3.513E+00
   18.800   3.408E+00
   18.900   3.307E+00
   19.000   3.210E+00
   19.100   3.116E+00
   19.200   3.026E+00
   19.300   2.940E+00
   19.400   2.857E+00
   19.500   2.777E+00
   19.600   2.700E+00
   19.700   2.627E+00
   19.800   2.557E+00
   19.900   2.489E+00
   20.000   2.425E+00
   20.100   2.363E+00
   20.200   2.304E+00
   20.300   2.248E+00
   20.400   2.195E+00
   20.500   2.144E+00
   20.600   2.096E+00
   20.700   2.050E+00
   20.800   2.006E+00
   20.900   1.964E+00
   21.000   1.925E+00
   21.100   1.887E+00
   21.200   1.851E+00
   21.300   1.816E+00
   21.400   1.783E+00
   21.500   1.750E+00
   21.600   1.718E+00
   21.700   1.687E+00
   21.800   1.656E+00
   21.900   1.626E+00
   22.000   1.595E+00
   22.100   1.565E+00
   22.200   1.534E+00
   22.300   1.503E+00
   22.400   1.473E+00
   22.500   1.442E+00
   22.600   1.411E+00
   22.700   1.381E+00
   22.800   1.350E+00
   22.900   1.320E+00
   23.000   1.290E+00
   23.100   1.260E+00
   23.200   1.230E+00
   23.300   1.201E+00
   23.400   1.172E+00
   23.500   1.144E+00
   23.600   1.116E+00
   23.700   1.089E+00
   23.800   1.062E+00
   23.900   1.036E+00
   24.000   1.011E+00
   24.100   9.871E-01
   24.200   9.636E-01
   24.300   9.409E-01
   24.400   9.190E-01
   24.500   8.980E-01
   24.600   8.777E-01
   24.700   8.581E-01
   24.800   8.393E-01
   24.900   8.212E-01
   25.000   8.037E-01
   25.100   7.869E-01
   25.200   7.707E-01
   25.300   7.551E-01
   25.400   7.401E-01
   25.500   7.256E-01
   25.600   7.116E-01
   25.700   6.981E-01
   25.800   6.851E-01
   25.900   6.725E-01
   26.000   6.603E-01
   26.100   6.485E-01
   26.200   6.371E-01
   26.300   6.260E-01
   26.400   6.153E-01
   26.500   6.049E-01
   26.600   5.948E-01
   26.700   5.851E-01
   26.800   5.756E-01
   26.900   5.663E-01
   27.000   5.574E-01
   27.100   5.487E-01
   27.200   5.402E-01
   27.300   5.320E-01
   27.400   5.239E-01
   27.500   5.161E-01
   27.600   5.085E-01
   27.700   5.011E-01
   27.800   4.939E-01
   27.900   4.868E-01
   28.000   4.800E-01
   28.100   4.733E-01
   28.200   4.667E-01
   28.300   4.603E-01
   28.400   4.541E-01
   28.500   4.480E-01
   28.600   4.420E-01
   28.700   4.362E-01
   28.800   4.305E-01
   28.900   4.250E-01
   29.000   4.195E-01
   29.100   4.142E-01
   29.200   4.090E-01
   29.300   4.039E-01
   29.400   3.989E-01
   29.500   3.940E-01
   29.600   3.892E-01
   29.700   3.845E-01
   29.800   3.799E-01
   29.900   3.754E-01
   30.000   3.710E-01
 
 Z=  34 A=  86  D1M-QRPA
   E[MeV]   fQRPA[mb/MeV]
    0.100   2.868E-04
    0.200   1.140E-03
    0.300   2.540E-03
    0.400   4.455E-03
    0.500   6.840E-03
    0.600   9.643E-03
    0.700   1.281E-02
    0.800   1.627E-02
    0.900   1.996E-02
    1.000   2.383E-02
    1.100   2.780E-02
    1.200   3.183E-02
    1.300   3.586E-02
    1.400   3.986E-02
    1.500   4.378E-02
    1.600   4.761E-02
    1.700   5.133E-02
    1.800   5.492E-02
    1.900   5.838E-02
    2.000   6.172E-02
    2.100   6.494E-02
    2.200   6.806E-02
    2.300   7.109E-02
    2.400   7.405E-02
    2.500   7.696E-02
    2.600   7.984E-02
    2.700   8.271E-02
    2.800   8.560E-02
    2.900   8.852E-02
    3.000   9.149E-02
    3.100   9.454E-02
    3.200   9.768E-02
    3.300   1.009E-01
    3.400   1.043E-01
    3.500   1.078E-01
    3.600   1.115E-01
    3.700   1.153E-01
    3.800   1.194E-01
    3.900   1.236E-01
    4.000   1.280E-01
    4.100   1.327E-01
    4.200   1.376E-01
    4.300   1.427E-01
    4.400   1.481E-01
    4.500   1.538E-01
    4.600   1.597E-01
    4.700   1.660E-01
    4.800   1.725E-01
    4.900   1.794E-01
    5.000   1.866E-01
    5.100   1.942E-01
    5.200   2.021E-01
    5.300   2.104E-01
    5.400   2.191E-01
    5.500   2.282E-01
    5.600   2.378E-01
    5.700   2.478E-01
    5.800   2.582E-01
    5.900   2.692E-01
    6.000   2.806E-01
    6.100   2.926E-01
    6.200   3.051E-01
    6.300   3.182E-01
    6.400   3.319E-01
    6.500   3.462E-01
    6.600   3.611E-01
    6.700   3.767E-01
    6.800   3.929E-01
    6.900   4.098E-01
    7.000   4.275E-01
    7.100   4.459E-01
    7.200   4.650E-01
    7.300   4.850E-01
    7.400   5.057E-01
    7.500   5.272E-01
    7.600   5.496E-01
    7.700   5.729E-01
    7.800   5.970E-01
    7.900   6.220E-01
    8.000   6.480E-01
    8.100   6.749E-01
    8.200   7.028E-01
    8.300   7.317E-01
    8.400   7.617E-01
    8.500   7.927E-01
    8.600   8.249E-01
    8.700   8.583E-01
    8.800   8.929E-01
    8.900   9.289E-01
    9.000   9.661E-01
    9.100   1.005E+00
    9.200   1.045E+00
    9.300   1.087E+00
    9.400   1.130E+00
    9.500   1.175E+00
    9.600   1.222E+00
    9.700   1.271E+00
    9.800   1.321E+00
    9.900   1.374E+00
   10.000   1.429E+00
   10.100   1.486E+00
   10.200   1.545E+00
   10.300   1.607E+00
   10.400   1.671E+00
   10.500   1.738E+00
   10.600   1.807E+00
   10.700   1.880E+00
   10.800   1.955E+00
   10.900   2.033E+00
   11.000   2.115E+00
   11.100   2.200E+00
   11.200   2.289E+00
   11.300   2.382E+00
   11.400   2.478E+00
   11.500   2.578E+00
   11.600   2.683E+00
   11.700   2.792E+00
   11.800   2.906E+00
   11.900   3.025E+00
   12.000   3.149E+00
   12.100   3.278E+00
   12.200   3.412E+00
   12.300   3.553E+00
   12.400   3.699E+00
   12.500   3.851E+00
   12.600   4.010E+00
   12.700   4.174E+00
   12.800   4.346E+00
   12.900   4.523E+00
   13.000   4.707E+00
   13.100   4.896E+00
   13.200   5.092E+00
   13.300   5.293E+00
   13.400   5.500E+00
   13.500   5.710E+00
   13.600   5.925E+00
   13.700   6.142E+00
   13.800   6.361E+00
   13.900   6.581E+00
   14.000   6.801E+00
   14.100   7.019E+00
   14.200   7.233E+00
   14.300   7.443E+00
   14.400   7.646E+00
   14.500   7.842E+00
   14.600   8.028E+00
   14.700   8.202E+00
   14.800   8.365E+00
   14.900   8.514E+00
   15.000   8.647E+00
   15.100   8.765E+00
   15.200   8.866E+00
   15.300   8.948E+00
   15.400   9.013E+00
   15.500   9.059E+00
   15.600   9.087E+00
   15.700   9.095E+00
   15.800   9.085E+00
   15.900   9.057E+00
   16.000   9.011E+00
   16.100   8.949E+00
   16.200   8.870E+00
   16.300   8.777E+00
   16.400   8.670E+00
   16.500   8.551E+00
   16.600   8.421E+00
   16.700   8.282E+00
   16.800   8.134E+00
   16.900   7.981E+00
   17.000   7.822E+00
   17.100   7.660E+00
   17.200   7.496E+00
   17.300   7.331E+00
   17.400   7.166E+00
   17.500   7.001E+00
   17.600   6.839E+00
   17.700   6.679E+00
   17.800   6.522E+00
   17.900   6.368E+00
   18.000   6.218E+00
   18.100   6.071E+00
   18.200   5.928E+00
   18.300   5.789E+00
   18.400   5.653E+00
   18.500   5.520E+00
   18.600   5.390E+00
   18.700   5.263E+00
   18.800   5.138E+00
   18.900   5.015E+00
   19.000   4.895E+00
   19.100   4.775E+00
   19.200   4.658E+00
   19.300   4.541E+00
   19.400   4.426E+00
   19.500   4.312E+00
   19.600   4.199E+00
   19.700   4.087E+00
   19.800   3.977E+00
   19.900   3.869E+00
   20.000   3.762E+00
   20.100   3.657E+00
   20.200   3.553E+00
   20.300   3.452E+00
   20.400   3.354E+00
   20.500   3.257E+00
   20.600   3.163E+00
   20.700   3.072E+00
   20.800   2.984E+00
   20.900   2.898E+00
   21.000   2.815E+00
   21.100   2.735E+00
   21.200   2.657E+00
   21.300   2.582E+00
   21.400   2.510E+00
   21.500   2.440E+00
   21.600   2.373E+00
   21.700   2.308E+00
   21.800   2.246E+00
   21.900   2.186E+00
   22.000   2.129E+00
   22.100   2.073E+00
   22.200   2.020E+00
   22.300   1.968E+00
   22.400   1.919E+00
   22.500   1.871E+00
   22.600   1.825E+00
   22.700   1.781E+00
   22.800   1.739E+00
   22.900   1.698E+00
   23.000   1.658E+00
   23.100   1.620E+00
   23.200   1.583E+00
   23.300   1.548E+00
   23.400   1.514E+00
   23.500   1.481E+00
   23.600   1.449E+00
   23.700   1.418E+00
   23.800   1.388E+00
   23.900   1.359E+00
   24.000   1.331E+00
   24.100   1.304E+00
   24.200   1.278E+00
   24.300   1.253E+00
   24.400   1.229E+00
   24.500   1.205E+00
   24.600   1.182E+00
   24.700   1.160E+00
   24.800   1.138E+00
   24.900   1.117E+00
   25.000   1.097E+00
   25.100   1.077E+00
   25.200   1.058E+00
   25.300   1.039E+00
   25.400   1.021E+00
   25.500   1.003E+00
   25.600   9.863E-01
   25.700   9.696E-01
   25.800   9.534E-01
   25.900   9.377E-01
   26.000   9.224E-01
   26.100   9.074E-01
   26.200   8.929E-01
   26.300   8.788E-01
   26.400   8.650E-01
   26.500   8.515E-01
   26.600   8.384E-01
   26.700   8.256E-01
   26.800   8.132E-01
   26.900   8.010E-01
   27.000   7.891E-01
   27.100   7.775E-01
   27.200   7.662E-01
   27.300   7.552E-01
   27.400   7.444E-01
   27.500   7.339E-01
   27.600   7.236E-01
   27.700   7.135E-01
   27.800   7.037E-01
   27.900   6.941E-01
   28.000   6.847E-01
   28.100   6.755E-01
   28.200   6.665E-01
   28.300   6.577E-01
   28.400   6.491E-01
   28.500   6.406E-01
   28.600   6.324E-01
   28.700   6.243E-01
   28.800   6.164E-01
   28.900   6.086E-01
   29.000   6.011E-01
   29.100   5.936E-01
   29.200   5.863E-01
   29.300   5.792E-01
   29.400   5.722E-01
   29.500   5.653E-01
   29.600   5.586E-01
   29.700   5.520E-01
   29.800   5.455E-01
   29.900   5.391E-01
   30.000   5.329E-01
 
 Z=  34 A=  87  D1M-QRPA-Inter
 E[MeV]  fQRPA[mb/MeV]
    0.100   1.443E-04
    0.200   5.758E-04
    0.300   1.289E-03
    0.400   2.277E-03
    0.500   3.529E-03
    0.600   5.032E-03
    0.700   6.771E-03
    0.800   8.729E-03
    0.900   1.089E-02
    1.000   1.323E-02
    1.100   1.574E-02
    1.200   1.840E-02
    1.300   2.119E-02
    1.400   2.410E-02
    1.500   2.711E-02
    1.600   3.022E-02
    1.700   3.341E-02
    1.800   3.668E-02
    1.900   4.002E-02
    2.000   4.342E-02
    2.100   4.690E-02
    2.200   5.046E-02
    2.300   5.409E-02
    2.400   5.780E-02
    2.500   6.160E-02
    2.600   6.550E-02
    2.700   6.951E-02
    2.800   7.364E-02
    2.900   7.791E-02
    3.000   8.231E-02
    3.100   8.688E-02
    3.200   9.161E-02
    3.300   9.653E-02
    3.400   1.016E-01
    3.500   1.070E-01
    3.600   1.125E-01
    3.700   1.183E-01
    3.800   1.243E-01
    3.900   1.306E-01
    4.000   1.372E-01
    4.100   1.441E-01
    4.200   1.513E-01
    4.300   1.588E-01
    4.400   1.667E-01
    4.500   1.748E-01
    4.600   1.834E-01
    4.700   1.923E-01
    4.800   2.017E-01
    4.900   2.114E-01
    5.000   2.215E-01
    5.100   2.321E-01
    5.200   2.431E-01
    5.300   2.545E-01
    5.400   2.664E-01
    5.500   2.787E-01
    5.600   2.916E-01
    5.700   3.049E-01
    5.800   3.187E-01
    5.900   3.329E-01
    6.000   3.477E-01
    6.100   3.630E-01
    6.200   3.788E-01
    6.300   3.952E-01
    6.400   4.121E-01
    6.500   4.296E-01
    6.600   4.477E-01
    6.700   4.664E-01
    6.800   4.857E-01
    6.900   5.057E-01
    7.000   5.264E-01
    7.100   5.477E-01
    7.200   5.698E-01
    7.300   5.927E-01
    7.400   6.164E-01
    7.500   6.408E-01
    7.600   6.661E-01
    7.700   6.923E-01
    7.800   7.194E-01
    7.900   7.473E-01
    8.000   7.763E-01
    8.100   8.062E-01
    8.200   8.371E-01
    8.300   8.691E-01
    8.400   9.021E-01
    8.500   9.363E-01
    8.600   9.716E-01
    8.700   1.008E+00
    8.800   1.046E+00
    8.900   1.085E+00
    9.000   1.125E+00
    9.100   1.167E+00
    9.200   1.211E+00
    9.300   1.256E+00
    9.400   1.303E+00
    9.500   1.351E+00
    9.600   1.401E+00
    9.700   1.453E+00
    9.800   1.508E+00
    9.900   1.564E+00
   10.000   1.622E+00
   10.100   1.683E+00
   10.200   1.746E+00
   10.300   1.812E+00
   10.400   1.881E+00
   10.500   1.952E+00
   10.600   2.026E+00
   10.700   2.103E+00
   10.800   2.183E+00
   10.900   2.267E+00
   11.000   2.354E+00
   11.100   2.444E+00
   11.200   2.539E+00
   11.300   2.637E+00
   11.400   2.740E+00
   11.500   2.847E+00
   11.600   2.959E+00
   11.700   3.075E+00
   11.800   3.197E+00
   11.900   3.324E+00
   12.000   3.455E+00
   12.100   3.593E+00
   12.200   3.735E+00
   12.300   3.884E+00
   12.400   4.037E+00
   12.500   4.197E+00
   12.600   4.361E+00
   12.700   4.531E+00
   12.800   4.706E+00
   12.900   4.885E+00
   13.000   5.068E+00
   13.100   5.256E+00
   13.200   5.446E+00
   13.300   5.638E+00
   13.400   5.832E+00
   13.500   6.026E+00
   13.600   6.221E+00
   13.700   6.413E+00
   13.800   6.604E+00
   13.900   6.791E+00
   14.000   6.974E+00
   14.100   7.152E+00
   14.200   7.323E+00
   14.300   7.487E+00
   14.400   7.643E+00
   14.500   7.790E+00
   14.600   7.928E+00
   14.700   8.055E+00
   14.800   8.172E+00
   14.900   8.278E+00
   15.000   8.372E+00
   15.100   8.454E+00
   15.200   8.524E+00
   15.300   8.581E+00
   15.400   8.625E+00
   15.500   8.657E+00
   15.600   8.676E+00
   15.700   8.682E+00
   15.800   8.675E+00
   15.900   8.655E+00
   16.000   8.623E+00
   16.100   8.578E+00
   16.200   8.522E+00
   16.300   8.454E+00
   16.400   8.375E+00
   16.500   8.285E+00
   16.600   8.186E+00
   16.700   8.078E+00
   16.800   7.962E+00
   16.900   7.839E+00
   17.000   7.710E+00
   17.100   7.576E+00
   17.200   7.437E+00
   17.300   7.295E+00
   17.400   7.151E+00
   17.500   7.005E+00
   17.600   6.858E+00
   17.700   6.712E+00
   17.800   6.566E+00
   17.900   6.421E+00
   18.000   6.278E+00
   18.100   6.138E+00
   18.200   6.000E+00
   18.300   5.864E+00
   18.400   5.732E+00
   18.500   5.602E+00
   18.600   5.475E+00
   18.700   5.352E+00
   18.800   5.231E+00
   18.900   5.114E+00
   19.000   4.999E+00
   19.100   4.886E+00
   19.200   4.777E+00
   19.300   4.669E+00
   19.400   4.564E+00
   19.500   4.461E+00
   19.600   4.360E+00
   19.700   4.261E+00
   19.800   4.165E+00
   19.900   4.070E+00
   20.000   3.977E+00
   20.100   3.885E+00
   20.200   3.796E+00
   20.300   3.708E+00
   20.400   3.622E+00
   20.500   3.538E+00
   20.600   3.456E+00
   20.700   3.375E+00
   20.800   3.296E+00
   20.900   3.219E+00
   21.000   3.144E+00
   21.100   3.070E+00
   21.200   2.998E+00
   21.300   2.928E+00
   21.400   2.860E+00
   21.500   2.793E+00
   21.600   2.728E+00
   21.700   2.665E+00
   21.800   2.603E+00
   21.900   2.543E+00
   22.000   2.485E+00
   22.100   2.428E+00
   22.200   2.372E+00
   22.300   2.318E+00
   22.400   2.266E+00
   22.500   2.214E+00
   22.600   2.164E+00
   22.700   2.116E+00
   22.800   2.068E+00
   22.900   2.022E+00
   23.000   1.977E+00
   23.100   1.934E+00
   23.200   1.891E+00
   23.300   1.849E+00
   23.400   1.809E+00
   23.500   1.769E+00
   23.600   1.731E+00
   23.700   1.693E+00
   23.800   1.657E+00
   23.900   1.621E+00
   24.000   1.587E+00
   24.100   1.553E+00
   24.200   1.520E+00
   24.300   1.488E+00
   24.400   1.456E+00
   24.500   1.426E+00
   24.600   1.396E+00
   24.700   1.367E+00
   24.800   1.338E+00
   24.900   1.311E+00
   25.000   1.284E+00
   25.100   1.258E+00
   25.200   1.233E+00
   25.300   1.208E+00
   25.400   1.184E+00
   25.500   1.160E+00
   25.600   1.138E+00
   25.700   1.116E+00
   25.800   1.094E+00
   25.900   1.073E+00
   26.000   1.053E+00
   26.100   1.033E+00
   26.200   1.014E+00
   26.300   9.959E-01
   26.400   9.780E-01
   26.500   9.605E-01
   26.600   9.436E-01
   26.700   9.272E-01
   26.800   9.112E-01
   26.900   8.957E-01
   27.000   8.806E-01
   27.100   8.659E-01
   27.200   8.517E-01
   27.300   8.378E-01
   27.400   8.244E-01
   27.500   8.113E-01
   27.600   7.985E-01
   27.700   7.861E-01
   27.800   7.740E-01
   27.900   7.622E-01
   28.000   7.508E-01
   28.100   7.396E-01
   28.200   7.287E-01
   28.300   7.181E-01
   28.400   7.077E-01
   28.500   6.976E-01
   28.600   6.877E-01
   28.700   6.781E-01
   28.800   6.687E-01
   28.900   6.595E-01
   29.000   6.506E-01
   29.100   6.418E-01
   29.200   6.333E-01
   29.300   6.249E-01
   29.400   6.167E-01
   29.500   6.087E-01
   29.600   6.009E-01
   29.700   5.933E-01
   29.800   5.858E-01
   29.900   5.784E-01
   30.000   5.713E-01
 
 Z=  34 A=  88  D1M-QRPA
   E[MeV]   fQRPA[mb/MeV]
    0.100   7.224E-05
    0.200   2.891E-04
    0.300   6.508E-04
    0.400   1.158E-03
    0.500   1.811E-03
    0.600   2.611E-03
    0.700   3.560E-03
    0.800   4.657E-03
    0.900   5.906E-03
    1.000   7.308E-03
    1.100   8.865E-03
    1.200   1.058E-02
    1.300   1.245E-02
    1.400   1.449E-02
    1.500   1.670E-02
    1.600   1.907E-02
    1.700   2.163E-02
    1.800   2.436E-02
    1.900   2.727E-02
    2.000   3.038E-02
    2.100   3.369E-02
    2.200   3.720E-02
    2.300   4.092E-02
    2.400   4.486E-02
    2.500   4.903E-02
    2.600   5.344E-02
    2.700   5.809E-02
    2.800   6.300E-02
    2.900   6.818E-02
    3.000   7.364E-02
    3.100   7.939E-02
    3.200   8.543E-02
    3.300   9.180E-02
    3.400   9.849E-02
    3.500   1.055E-01
    3.600   1.129E-01
    3.700   1.207E-01
    3.800   1.288E-01
    3.900   1.373E-01
    4.000   1.463E-01
    4.100   1.557E-01
    4.200   1.655E-01
    4.300   1.757E-01
    4.400   1.865E-01
    4.500   1.977E-01
    4.600   2.094E-01
    4.700   2.217E-01
    4.800   2.344E-01
    4.900   2.477E-01
    5.000   2.615E-01
    5.100   2.758E-01
    5.200   2.907E-01
    5.300   3.061E-01
    5.400   3.221E-01
    5.500   3.385E-01
    5.600   3.555E-01
    5.700   3.730E-01
    5.800   3.910E-01
    5.900   4.095E-01
    6.000   4.284E-01
    6.100   4.479E-01
    6.200   4.677E-01
    6.300   4.881E-01
    6.400   5.089E-01
    6.500   5.302E-01
    6.600   5.520E-01
    6.700   5.743E-01
    6.800   5.971E-01
    6.900   6.205E-01
    7.000   6.445E-01
    7.100   6.691E-01
    7.200   6.943E-01
    7.300   7.203E-01
    7.400   7.470E-01
    7.500   7.745E-01
    7.600   8.028E-01
    7.700   8.320E-01
    7.800   8.620E-01
    7.900   8.929E-01
    8.000   9.248E-01
    8.100   9.577E-01
    8.200   9.915E-01
    8.300   1.026E+00
    8.400   1.062E+00
    8.500   1.100E+00
    8.600   1.138E+00
    8.700   1.177E+00
    8.800   1.218E+00
    8.900   1.260E+00
    9.000   1.304E+00
    9.100   1.349E+00
    9.200   1.395E+00
    9.300   1.443E+00
    9.400   1.493E+00
    9.500   1.544E+00
    9.600   1.598E+00
    9.700   1.653E+00
    9.800   1.711E+00
    9.900   1.770E+00
   10.000   1.832E+00
   10.100   1.896E+00
   10.200   1.963E+00
   10.300   2.033E+00
   10.400   2.105E+00
   10.500   2.180E+00
   10.600   2.258E+00
   10.700   2.339E+00
   10.800   2.424E+00
   10.900   2.512E+00
   11.000   2.604E+00
   11.100   2.700E+00
   11.200   2.800E+00
   11.300   2.904E+00
   11.400   3.013E+00
   11.500   3.127E+00
   11.600   3.245E+00
   11.700   3.369E+00
   11.800   3.497E+00
   11.900   3.631E+00
   12.000   3.771E+00
   12.100   3.916E+00
   12.200   4.066E+00
   12.300   4.222E+00
   12.400   4.382E+00
   12.500   4.547E+00
   12.600   4.717E+00
   12.700   4.890E+00
   12.800   5.067E+00
   12.900   5.247E+00
   13.000   5.428E+00
   13.100   5.609E+00
   13.200   5.791E+00
   13.300   5.972E+00
   13.400   6.150E+00
   13.500   6.324E+00
   13.600   6.495E+00
   13.700   6.659E+00
   13.800   6.818E+00
   13.900   6.969E+00
   14.000   7.112E+00
   14.100   7.246E+00
   14.200   7.372E+00
   14.300   7.489E+00
   14.400   7.597E+00
   14.500   7.696E+00
   14.600   7.786E+00
   14.700   7.867E+00
   14.800   7.939E+00
   14.900   8.004E+00
   15.000   8.060E+00
   15.100   8.108E+00
   15.200   8.149E+00
   15.300   8.182E+00
   15.400   8.208E+00
   15.500   8.227E+00
   15.600   8.237E+00
   15.700   8.241E+00
   15.800   8.237E+00
   15.900   8.225E+00
   16.000   8.205E+00
   16.100   8.177E+00
   16.200   8.141E+00
   16.300   8.097E+00
   16.400   8.044E+00
   16.500   7.983E+00
   16.600   7.914E+00
   16.700   7.836E+00
   16.800   7.751E+00
   16.900   7.658E+00
   17.000   7.557E+00
   17.100   7.450E+00
   17.200   7.337E+00
   17.300   7.219E+00
   17.400   7.096E+00
   17.500   6.969E+00
   17.600   6.839E+00
   17.700   6.707E+00
   17.800   6.573E+00
   17.900   6.439E+00
   18.000   6.304E+00
   18.100   6.171E+00
   18.200   6.038E+00
   18.300   5.908E+00
   18.400   5.779E+00
   18.500   5.654E+00
   18.600   5.531E+00
   18.700   5.412E+00
   18.800   5.297E+00
   18.900   5.185E+00
   19.000   5.076E+00
   19.100   4.972E+00
   19.200   4.871E+00
   19.300   4.774E+00
   19.400   4.680E+00
   19.500   4.590E+00
   19.600   4.503E+00
   19.700   4.418E+00
   19.800   4.336E+00
   19.900   4.257E+00
   20.000   4.180E+00
   20.100   4.105E+00
   20.200   4.032E+00
   20.300   3.961E+00
   20.400   3.891E+00
   20.500   3.822E+00
   20.600   3.754E+00
   20.700   3.687E+00
   20.800   3.621E+00
   20.900   3.556E+00
   21.000   3.492E+00
   21.100   3.428E+00
   21.200   3.365E+00
   21.300   3.302E+00
   21.400   3.241E+00
   21.500   3.179E+00
   21.600   3.119E+00
   21.700   3.059E+00
   21.800   3.000E+00
   21.900   2.942E+00
   22.000   2.884E+00
   22.100   2.827E+00
   22.200   2.770E+00
   22.300   2.715E+00
   22.400   2.660E+00
   22.500   2.606E+00
   22.600   2.552E+00
   22.700   2.499E+00
   22.800   2.447E+00
   22.900   2.395E+00
   23.000   2.345E+00
   23.100   2.295E+00
   23.200   2.246E+00
   23.300   2.197E+00
   23.400   2.150E+00
   23.500   2.103E+00
   23.600   2.057E+00
   23.700   2.011E+00
   23.800   1.967E+00
   23.900   1.923E+00
   24.000   1.880E+00
   24.100   1.838E+00
   24.200   1.797E+00
   24.300   1.756E+00
   24.400   1.716E+00
   24.500   1.678E+00
   24.600   1.639E+00
   24.700   1.602E+00
   24.800   1.566E+00
   24.900   1.530E+00
   25.000   1.495E+00
   25.100   1.461E+00
   25.200   1.428E+00
   25.300   1.396E+00
   25.400   1.365E+00
   25.500   1.334E+00
   25.600   1.305E+00
   25.700   1.276E+00
   25.800   1.249E+00
   25.900   1.222E+00
   26.000   1.196E+00
   26.100   1.170E+00
   26.200   1.146E+00
   26.300   1.122E+00
   26.400   1.100E+00
   26.500   1.077E+00
   26.600   1.056E+00
   26.700   1.035E+00
   26.800   1.015E+00
   26.900   9.959E-01
   27.000   9.772E-01
   27.100   9.590E-01
   27.200   9.414E-01
   27.300   9.243E-01
   27.400   9.078E-01
   27.500   8.918E-01
   27.600   8.762E-01
   27.700   8.612E-01
   27.800   8.466E-01
   27.900   8.324E-01
   28.000   8.186E-01
   28.100   8.052E-01
   28.200   7.922E-01
   28.300   7.796E-01
   28.400   7.673E-01
   28.500   7.554E-01
   28.600   7.437E-01
   28.700   7.324E-01
   28.800   7.214E-01
   28.900   7.107E-01
   29.000   7.002E-01
   29.100   6.901E-01
   29.200   6.801E-01
   29.300   6.705E-01
   29.400   6.610E-01
   29.500   6.518E-01
   29.600   6.428E-01
   29.700   6.341E-01
   29.800   6.255E-01
   29.900   6.171E-01
   30.000   6.090E-01
 
 Z=  34 A=  89  D1M-QRPA-Inter
 E[MeV]  fQRPA[mb/MeV]
    0.100   7.930E-05
    0.200   3.171E-04
    0.300   7.130E-04
    0.400   1.267E-03
    0.500   1.978E-03
    0.600   2.847E-03
    0.700   3.873E-03
    0.800   5.058E-03
    0.900   6.403E-03
    1.000   7.909E-03
    1.100   9.578E-03
    1.200   1.141E-02
    1.300   1.341E-02
    1.400   1.559E-02
    1.500   1.793E-02
    1.600   2.045E-02
    1.700   2.316E-02
    1.800   2.605E-02
    1.900   2.912E-02
    2.000   3.239E-02
    2.100   3.586E-02
    2.200   3.954E-02
    2.300   4.343E-02
    2.400   4.755E-02
    2.500   5.189E-02
    2.600   5.647E-02
    2.700   6.131E-02
    2.800   6.640E-02
    2.900   7.177E-02
    3.000   7.743E-02
    3.100   8.338E-02
    3.200   8.965E-02
    3.300   9.624E-02
    3.400   1.032E-01
    3.500   1.105E-01
    3.600   1.181E-01
    3.700   1.262E-01
    3.800   1.347E-01
    3.900   1.436E-01
    4.000   1.529E-01
    4.100   1.627E-01
    4.200   1.730E-01
    4.300   1.837E-01
    4.400   1.950E-01
    4.500   2.068E-01
    4.600   2.191E-01
    4.700   2.320E-01
    4.800   2.455E-01
    4.900   2.595E-01
    5.000   2.741E-01
    5.100   2.894E-01
    5.200   3.052E-01
    5.300   3.217E-01
    5.400   3.387E-01
    5.500   3.564E-01
    5.600   3.746E-01
    5.700   3.934E-01
    5.800   4.128E-01
    5.900   4.328E-01
    6.000   4.533E-01
    6.100   4.742E-01
    6.200   4.957E-01
    6.300   5.177E-01
    6.400   5.402E-01
    6.500   5.632E-01
    6.600   5.867E-01
    6.700   6.107E-01
    6.800   6.352E-01
    6.900   6.603E-01
    7.000   6.859E-01
    7.100   7.122E-01
    7.200   7.391E-01
    7.300   7.668E-01
    7.400   7.952E-01
    7.500   8.245E-01
    7.600   8.546E-01
    7.700   8.856E-01
    7.800   9.176E-01
    7.900   9.507E-01
    8.000   9.848E-01
    8.100   1.020E+00
    8.200   1.057E+00
    8.300   1.094E+00
    8.400   1.133E+00
    8.500   1.174E+00
    8.600   1.216E+00
    8.700   1.259E+00
    8.800   1.304E+00
    8.900   1.351E+00
    9.000   1.399E+00
    9.100   1.449E+00
    9.200   1.501E+00
    9.300   1.556E+00
    9.400   1.612E+00
    9.500   1.670E+00
    9.600   1.731E+00
    9.700   1.794E+00
    9.800   1.859E+00
    9.900   1.927E+00
   10.000   1.998E+00
   10.100   2.072E+00
   10.200   2.148E+00
   10.300   2.228E+00
   10.400   2.311E+00
   10.500   2.397E+00
   10.600   2.487E+00
   10.700   2.581E+00
   10.800   2.678E+00
   10.900   2.780E+00
   11.000   2.886E+00
   11.100   2.997E+00
   11.200   3.112E+00
   11.300   3.232E+00
   11.400   3.358E+00
   11.500   3.489E+00
   11.600   3.625E+00
   11.700   3.767E+00
   11.800   3.915E+00
   11.900   4.069E+00
   12.000   4.228E+00
   12.100   4.393E+00
   12.200   4.563E+00
   12.300   4.739E+00
   12.400   4.919E+00
   12.500   5.102E+00
   12.600   5.290E+00
   12.700   5.479E+00
   12.800   5.671E+00
   12.900   5.862E+00
   13.000   6.053E+00
   13.100   6.242E+00
   13.200   6.429E+00
   13.300   6.611E+00
   13.400   6.788E+00
   13.500   6.959E+00
   13.600   7.123E+00
   13.700   7.279E+00
   13.800   7.427E+00
   13.900   7.566E+00
   14.000   7.697E+00
   14.100   7.818E+00
   14.200   7.930E+00
   14.300   8.033E+00
   14.400   8.126E+00
   14.500   8.211E+00
   14.600   8.286E+00
   14.700   8.353E+00
   14.800   8.410E+00
   14.900   8.458E+00
   15.000   8.498E+00
   15.100   8.528E+00
   15.200   8.549E+00
   15.300   8.561E+00
   15.400   8.563E+00
   15.500   8.556E+00
   15.600   8.540E+00
   15.700   8.514E+00
   15.800   8.479E+00
   15.900   8.435E+00
   16.000   8.383E+00
   16.100   8.321E+00
   16.200   8.252E+00
   16.300   8.175E+00
   16.400   8.091E+00
   16.500   8.000E+00
   16.600   7.903E+00
   16.700   7.801E+00
   16.800   7.694E+00
   16.900   7.584E+00
   17.000   7.469E+00
   17.100   7.352E+00
   17.200   7.232E+00
   17.300   7.110E+00
   17.400   6.987E+00
   17.500   6.862E+00
   17.600   6.737E+00
   17.700   6.612E+00
   17.800   6.486E+00
   17.900   6.361E+00
   18.000   6.236E+00
   18.100   6.111E+00
   18.200   5.988E+00
   18.300   5.865E+00
   18.400   5.743E+00
   18.500   5.622E+00
   18.600   5.503E+00
   18.700   5.385E+00
   18.800   5.268E+00
   18.900   5.153E+00
   19.000   5.040E+00
   19.100   4.929E+00
   19.200   4.819E+00
   19.300   4.711E+00
   19.400   4.605E+00
   19.500   4.500E+00
   19.600   4.397E+00
   19.700   4.296E+00
   19.800   4.197E+00
   19.900   4.099E+00
   20.000   4.002E+00
   20.100   3.907E+00
   20.200   3.814E+00
   20.300   3.722E+00
   20.400   3.632E+00
   20.500   3.544E+00
   20.600   3.457E+00
   20.700   3.373E+00
   20.800   3.289E+00
   20.900   3.208E+00
   21.000   3.129E+00
   21.100   3.051E+00
   21.200   2.976E+00
   21.300   2.902E+00
   21.400   2.830E+00
   21.500   2.760E+00
   21.600   2.692E+00
   21.700   2.626E+00
   21.800   2.562E+00
   21.900   2.500E+00
   22.000   2.439E+00
   22.100   2.381E+00
   22.200   2.324E+00
   22.300   2.268E+00
   22.400   2.214E+00
   22.500   2.162E+00
   22.600   2.111E+00
   22.700   2.062E+00
   22.800   2.014E+00
   22.900   1.967E+00
   23.000   1.922E+00
   23.100   1.878E+00
   23.200   1.835E+00
   23.300   1.794E+00
   23.400   1.753E+00
   23.500   1.714E+00
   23.600   1.676E+00
   23.700   1.639E+00
   23.800   1.603E+00
   23.900   1.567E+00
   24.000   1.533E+00
   24.100   1.500E+00
   24.200   1.467E+00
   24.300   1.436E+00
   24.400   1.405E+00
   24.500   1.375E+00
   24.600   1.346E+00
   24.700   1.317E+00
   24.800   1.290E+00
   24.900   1.263E+00
   25.000   1.236E+00
   25.100   1.211E+00
   25.200   1.186E+00
   25.300   1.162E+00
   25.400   1.139E+00
   25.500   1.116E+00
   25.600   1.094E+00
   25.700   1.073E+00
   25.800   1.052E+00
   25.900   1.032E+00
   26.000   1.012E+00
   26.100   9.931E-01
   26.200   9.746E-01
   26.300   9.567E-01
   26.400   9.394E-01
   26.500   9.225E-01
   26.600   9.062E-01
   26.700   8.903E-01
   26.800   8.749E-01
   26.900   8.599E-01
   27.000   8.454E-01
   27.100   8.313E-01
   27.200   8.175E-01
   27.300   8.042E-01
   27.400   7.912E-01
   27.500   7.786E-01
   27.600   7.663E-01
   27.700   7.544E-01
   27.800   7.428E-01
   27.900   7.314E-01
   28.000   7.204E-01
   28.100   7.097E-01
   28.200   6.992E-01
   28.300   6.890E-01
   28.400   6.790E-01
   28.500   6.693E-01
   28.600   6.599E-01
   28.700   6.506E-01
   28.800   6.416E-01
   28.900   6.328E-01
   29.000   6.242E-01
   29.100   6.158E-01
   29.200   6.076E-01
   29.300   5.996E-01
   29.400   5.917E-01
   29.500   5.841E-01
   29.600   5.766E-01
   29.700   5.692E-01
   29.800   5.621E-01
   29.900   5.550E-01
   30.000   5.482E-01
 
 Z=  34 A=  90  D1M-QRPA
   E[MeV]   fQRPA[mb/MeV]
    0.100   8.624E-05
    0.200   3.446E-04
    0.300   7.740E-04
    0.400   1.373E-03
    0.500   2.140E-03
    0.600   3.074E-03
    0.700   4.175E-03
    0.800   5.442E-03
    0.900   6.877E-03
    1.000   8.480E-03
    1.100   1.025E-02
    1.200   1.220E-02
    1.300   1.431E-02
    1.400   1.661E-02
    1.500   1.908E-02
    1.600   2.173E-02
    1.700   2.457E-02
    1.800   2.759E-02
    1.900   3.081E-02
    2.000   3.422E-02
    2.100   3.783E-02
    2.200   4.165E-02
    2.300   4.568E-02
    2.400   4.993E-02
    2.500   5.441E-02
    2.600   5.913E-02
    2.700   6.410E-02
    2.800   6.934E-02
    2.900   7.485E-02
    3.000   8.066E-02
    3.100   8.677E-02
    3.200   9.320E-02
    3.300   9.997E-02
    3.400   1.071E-01
    3.500   1.146E-01
    3.600   1.225E-01
    3.700   1.308E-01
    3.800   1.395E-01
    3.900   1.487E-01
    4.000   1.583E-01
    4.100   1.685E-01
    4.200   1.791E-01
    4.300   1.903E-01
    4.400   2.020E-01
    4.500   2.143E-01
    4.600   2.271E-01
    4.700   2.406E-01
    4.800   2.546E-01
    4.900   2.694E-01
    5.000   2.847E-01
    5.100   3.008E-01
    5.200   3.175E-01
    5.300   3.349E-01
    5.400   3.529E-01
    5.500   3.717E-01
    5.600   3.911E-01
    5.700   4.111E-01
    5.800   4.318E-01
    5.900   4.532E-01
    6.000   4.751E-01
    6.100   4.976E-01
    6.200   5.206E-01
    6.300   5.441E-01
    6.400   5.682E-01
    6.500   5.928E-01
    6.600   6.178E-01
    6.700   6.434E-01
    6.800   6.695E-01
    6.900   6.961E-01
    7.000   7.233E-01
    7.100   7.511E-01
    7.200   7.796E-01
    7.300   8.088E-01
    7.400   8.388E-01
    7.500   8.696E-01
    7.600   9.014E-01
    7.700   9.341E-01
    7.800   9.679E-01
    7.900   1.003E+00
    8.000   1.039E+00
    8.100   1.077E+00
    8.200   1.116E+00
    8.300   1.156E+00
    8.400   1.198E+00
    8.500   1.241E+00
    8.600   1.287E+00
    8.700   1.334E+00
    8.800   1.383E+00
    8.900   1.434E+00
    9.000   1.488E+00
    9.100   1.543E+00
    9.200   1.601E+00
    9.300   1.661E+00
    9.400   1.724E+00
    9.500   1.789E+00
    9.600   1.857E+00
    9.700   1.928E+00
    9.800   2.002E+00
    9.900   2.079E+00
   10.000   2.159E+00
   10.100   2.242E+00
   10.200   2.329E+00
   10.300   2.420E+00
   10.400   2.514E+00
   10.500   2.612E+00
   10.600   2.714E+00
   10.700   2.821E+00
   10.800   2.932E+00
   10.900   3.048E+00
   11.000   3.169E+00
   11.100   3.296E+00
   11.200   3.427E+00
   11.300   3.565E+00
   11.400   3.708E+00
   11.500   3.857E+00
   11.600   4.012E+00
   11.700   4.174E+00
   11.800   4.342E+00
   11.900   4.516E+00
   12.000   4.697E+00
   12.100   4.883E+00
   12.200   5.074E+00
   12.300   5.270E+00
   12.400   5.470E+00
   12.500   5.673E+00
   12.600   5.877E+00
   12.700   6.083E+00
   12.800   6.287E+00
   12.900   6.490E+00
   13.000   6.689E+00
   13.100   6.883E+00
   13.200   7.071E+00
   13.300   7.251E+00
   13.400   7.423E+00
   13.500   7.586E+00
   13.600   7.740E+00
   13.700   7.883E+00
   13.800   8.016E+00
   13.900   8.140E+00
   14.000   8.253E+00
   14.100   8.357E+00
   14.200   8.451E+00
   14.300   8.536E+00
   14.400   8.612E+00
   14.500   8.679E+00
   14.600   8.738E+00
   14.700   8.787E+00
   14.800   8.826E+00
   14.900   8.857E+00
   15.000   8.877E+00
   15.100   8.887E+00
   15.200   8.886E+00
   15.300   8.874E+00
   15.400   8.851E+00
   15.500   8.817E+00
   15.600   8.772E+00
   15.700   8.716E+00
   15.800   8.649E+00
   15.900   8.572E+00
   16.000   8.485E+00
   16.100   8.390E+00
   16.200   8.288E+00
   16.300   8.178E+00
   16.400   8.063E+00
   16.500   7.944E+00
   16.600   7.821E+00
   16.700   7.695E+00
   16.800   7.568E+00
   16.900   7.441E+00
   17.000   7.314E+00
   17.100   7.187E+00
   17.200   7.062E+00
   17.300   6.938E+00
   17.400   6.816E+00
   17.500   6.695E+00
   17.600   6.576E+00
   17.700   6.458E+00
   17.800   6.342E+00
   17.900   6.226E+00
   18.000   6.111E+00
   18.100   5.997E+00
   18.200   5.883E+00
   18.300   5.768E+00
   18.400   5.654E+00
   18.500   5.539E+00
   18.600   5.424E+00
   18.700   5.308E+00
   18.800   5.192E+00
   18.900   5.075E+00
   19.000   4.958E+00
   19.100   4.841E+00
   19.200   4.724E+00
   19.300   4.606E+00
   19.400   4.489E+00
   19.500   4.372E+00
   19.600   4.255E+00
   19.700   4.139E+00
   19.800   4.024E+00
   19.900   3.910E+00
   20.000   3.796E+00
   20.100   3.685E+00
   20.200   3.575E+00
   20.300   3.466E+00
   20.400   3.360E+00
   20.500   3.256E+00
   20.600   3.155E+00
   20.700   3.056E+00
   20.800   2.961E+00
   20.900   2.868E+00
   21.000   2.778E+00
   21.100   2.691E+00
   21.200   2.607E+00
   21.300   2.527E+00
   21.400   2.449E+00
   21.500   2.374E+00
   21.600   2.303E+00
   21.700   2.234E+00
   21.800   2.168E+00
   21.900   2.105E+00
   22.000   2.044E+00
   22.100   1.986E+00
   22.200   1.931E+00
   22.300   1.878E+00
   22.400   1.826E+00
   22.500   1.778E+00
   22.600   1.731E+00
   22.700   1.686E+00
   22.800   1.642E+00
   22.900   1.601E+00
   23.000   1.561E+00
   23.100   1.523E+00
   23.200   1.486E+00
   23.300   1.451E+00
   23.400   1.417E+00
   23.500   1.385E+00
   23.600   1.353E+00
   23.700   1.323E+00
   23.800   1.294E+00
   23.900   1.266E+00
   24.000   1.238E+00
   24.100   1.212E+00
   24.200   1.187E+00
   24.300   1.163E+00
   24.400   1.139E+00
   24.500   1.116E+00
   24.600   1.094E+00
   24.700   1.073E+00
   24.800   1.052E+00
   24.900   1.032E+00
   25.000   1.013E+00
   25.100   9.943E-01
   25.200   9.761E-01
   25.300   9.585E-01
   25.400   9.414E-01
   25.500   9.248E-01
   25.600   9.087E-01
   25.700   8.931E-01
   25.800   8.779E-01
   25.900   8.631E-01
   26.000   8.488E-01
   26.100   8.348E-01
   26.200   8.212E-01
   26.300   8.080E-01
   26.400   7.951E-01
   26.500   7.826E-01
   26.600   7.704E-01
   26.700   7.585E-01
   26.800   7.470E-01
   26.900   7.357E-01
   27.000   7.247E-01
   27.100   7.139E-01
   27.200   7.035E-01
   27.300   6.932E-01
   27.400   6.833E-01
   27.500   6.735E-01
   27.600   6.640E-01
   27.700   6.548E-01
   27.800   6.457E-01
   27.900   6.368E-01
   28.000   6.282E-01
   28.100   6.197E-01
   28.200   6.114E-01
   28.300   6.033E-01
   28.400   5.954E-01
   28.500   5.877E-01
   28.600   5.801E-01
   28.700   5.726E-01
   28.800   5.654E-01
   28.900   5.583E-01
   29.000   5.513E-01
   29.100   5.445E-01
   29.200   5.378E-01
   29.300   5.312E-01
   29.400   5.248E-01
   29.500   5.185E-01
   29.600   5.124E-01
   29.700   5.063E-01
   29.800   5.004E-01
   29.900   4.946E-01
   30.000   4.889E-01
 
 Z=  34 A=  91  D1M-QRPA-Inter
 E[MeV]  fQRPA[mb/MeV]
    0.100   1.059E-04
    0.200   4.232E-04
    0.300   9.514E-04
    0.400   1.690E-03
    0.500   2.637E-03
    0.600   3.794E-03
    0.700   5.159E-03
    0.800   6.733E-03
    0.900   8.516E-03
    1.000   1.051E-02
    1.100   1.272E-02
    1.200   1.514E-02
    1.300   1.778E-02
    1.400   2.063E-02
    1.500   2.371E-02
    1.600   2.701E-02
    1.700   3.053E-02
    1.800   3.429E-02
    1.900   3.828E-02
    2.000   4.251E-02
    2.100   4.698E-02
    2.200   5.171E-02
    2.300   5.669E-02
    2.400   6.194E-02
    2.500   6.746E-02
    2.600   7.326E-02
    2.700   7.935E-02
    2.800   8.575E-02
    2.900   9.247E-02
    3.000   9.951E-02
    3.100   1.069E-01
    3.200   1.146E-01
    3.300   1.228E-01
    3.400   1.313E-01
    3.500   1.402E-01
    3.600   1.495E-01
    3.700   1.593E-01
    3.800   1.695E-01
    3.900   1.802E-01
    4.000   1.914E-01
    4.100   2.031E-01
    4.200   2.153E-01
    4.300   2.281E-01
    4.400   2.414E-01
    4.500   2.553E-01
    4.600   2.698E-01
    4.700   2.849E-01
    4.800   3.007E-01
    4.900   3.171E-01
    5.000   3.342E-01
    5.100   3.520E-01
    5.200   3.705E-01
    5.300   3.897E-01
    5.400   4.096E-01
    5.500   4.302E-01
    5.600   4.515E-01
    5.700   4.736E-01
    5.800   4.964E-01
    5.900   5.199E-01
    6.000   5.441E-01
    6.100   5.690E-01
    6.200   5.946E-01
    6.300   6.209E-01
    6.400   6.479E-01
    6.500   6.755E-01
    6.600   7.038E-01
    6.700   7.328E-01
    6.800   7.625E-01
    6.900   7.929E-01
    7.000   8.241E-01
    7.100   8.560E-01
    7.200   8.887E-01
    7.300   9.223E-01
    7.400   9.567E-01
    7.500   9.920E-01
    7.600   1.028E+00
    7.700   1.066E+00
    7.800   1.104E+00
    7.900   1.144E+00
    8.000   1.185E+00
    8.100   1.227E+00
    8.200   1.270E+00
    8.300   1.315E+00
    8.400   1.362E+00
    8.500   1.410E+00
    8.600   1.459E+00
    8.700   1.511E+00
    8.800   1.564E+00
    8.900   1.620E+00
    9.000   1.678E+00
    9.100   1.737E+00
    9.200   1.799E+00
    9.300   1.864E+00
    9.400   1.931E+00
    9.500   2.000E+00
    9.600   2.073E+00
    9.700   2.148E+00
    9.800   2.226E+00
    9.900   2.308E+00
   10.000   2.392E+00
   10.100   2.480E+00
   10.200   2.571E+00
   10.300   2.666E+00
   10.400   2.765E+00
   10.500   2.867E+00
   10.600   2.974E+00
   10.700   3.085E+00
   10.800   3.200E+00
   10.900   3.320E+00
   11.000   3.444E+00
   11.100   3.573E+00
   11.200   3.707E+00
   11.300   3.846E+00
   11.400   3.989E+00
   11.500   4.139E+00
   11.600   4.293E+00
   11.700   4.452E+00
   11.800   4.617E+00
   11.900   4.787E+00
   12.000   4.961E+00
   12.100   5.140E+00
   12.200   5.324E+00
   12.300   5.511E+00
   12.400   5.701E+00
   12.500   5.894E+00
   12.600   6.089E+00
   12.700   6.285E+00
   12.800   6.481E+00
   12.900   6.675E+00
   13.000   6.868E+00
   13.100   7.058E+00
   13.200   7.244E+00
   13.300   7.426E+00
   13.400   7.601E+00
   13.500   7.771E+00
   13.600   7.933E+00
   13.700   8.088E+00
   13.800   8.234E+00
   13.900   8.373E+00
   14.000   8.502E+00
   14.100   8.623E+00
   14.200   8.735E+00
   14.300   8.838E+00
   14.400   8.932E+00
   14.500   9.016E+00
   14.600   9.090E+00
   14.700   9.154E+00
   14.800   9.208E+00
   14.900   9.252E+00
   15.000   9.285E+00
   15.100   9.307E+00
   15.200   9.318E+00
   15.300   9.319E+00
   15.400   9.308E+00
   15.500   9.285E+00
   15.600   9.252E+00
   15.700   9.209E+00
   15.800   9.154E+00
   15.900   9.090E+00
   16.000   9.017E+00
   16.100   8.934E+00
   16.200   8.844E+00
   16.300   8.745E+00
   16.400   8.641E+00
   16.500   8.530E+00
   16.600   8.414E+00
   16.700   8.294E+00
   16.800   8.170E+00
   16.900   8.043E+00
   17.000   7.913E+00
   17.100   7.782E+00
   17.200   7.650E+00
   17.300   7.516E+00
   17.400   7.382E+00
   17.500   7.248E+00
   17.600   7.113E+00
   17.700   6.978E+00
   17.800   6.844E+00
   17.900   6.710E+00
   18.000   6.575E+00
   18.100   6.442E+00
   18.200   6.308E+00
   18.300   6.175E+00
   18.400   6.043E+00
   18.500   5.911E+00
   18.600   5.780E+00
   18.700   5.649E+00
   18.800   5.520E+00
   18.900   5.391E+00
   19.000   5.264E+00
   19.100   5.138E+00
   19.200   5.013E+00
   19.300   4.890E+00
   19.400   4.768E+00
   19.500   4.648E+00
   19.600   4.529E+00
   19.700   4.413E+00
   19.800   4.298E+00
   19.900   4.185E+00
   20.000   4.075E+00
   20.100   3.966E+00
   20.200   3.860E+00
   20.300   3.756E+00
   20.400   3.655E+00
   20.500   3.556E+00
   20.600   3.460E+00
   20.700   3.366E+00
   20.800   3.275E+00
   20.900   3.187E+00
   21.000   3.101E+00
   21.100   3.018E+00
   21.200   2.938E+00
   21.300   2.861E+00
   21.400   2.786E+00
   21.500   2.714E+00
   21.600   2.644E+00
   21.700   2.577E+00
   21.800   2.512E+00
   21.900   2.450E+00
   22.000   2.390E+00
   22.100   2.332E+00
   22.200   2.276E+00
   22.300   2.222E+00
   22.400   2.170E+00
   22.500   2.120E+00
   22.600   2.071E+00
   22.700   2.025E+00
   22.800   1.980E+00
   22.900   1.936E+00
   23.000   1.894E+00
   23.100   1.854E+00
   23.200   1.815E+00
   23.300   1.777E+00
   23.400   1.740E+00
   23.500   1.705E+00
   23.600   1.671E+00
   23.700   1.638E+00
   23.800   1.606E+00
   23.900   1.574E+00
   24.000   1.544E+00
   24.100   1.515E+00
   24.200   1.487E+00
   24.300   1.459E+00
   24.400   1.433E+00
   24.500   1.407E+00
   24.600   1.382E+00
   24.700   1.358E+00
   24.800   1.334E+00
   24.900   1.311E+00
   25.000   1.289E+00
   25.100   1.267E+00
   25.200   1.246E+00
   25.300   1.225E+00
   25.400   1.205E+00
   25.500   1.186E+00
   25.600   1.167E+00
   25.700   1.148E+00
   25.800   1.130E+00
   25.900   1.113E+00
   26.000   1.096E+00
   26.100   1.079E+00
   26.200   1.063E+00
   26.300   1.047E+00
   26.400   1.031E+00
   26.500   1.016E+00
   26.600   1.001E+00
   26.700   9.871E-01
   26.800   9.730E-01
   26.900   9.593E-01
   27.000   9.459E-01
   27.100   9.328E-01
   27.200   9.199E-01
   27.300   9.074E-01
   27.400   8.952E-01
   27.500   8.832E-01
   27.600   8.714E-01
   27.700   8.600E-01
   27.800   8.487E-01
   27.900   8.378E-01
   28.000   8.270E-01
   28.100   8.165E-01
   28.200   8.062E-01
   28.300   7.960E-01
   28.400   7.861E-01
   28.500   7.764E-01
   28.600   7.669E-01
   28.700   7.576E-01
   28.800   7.485E-01
   28.900   7.395E-01
   29.000   7.308E-01
   29.100   7.222E-01
   29.200   7.137E-01
   29.300   7.054E-01
   29.400   6.973E-01
   29.500   6.893E-01
   29.600   6.815E-01
   29.700   6.738E-01
   29.800   6.662E-01
   29.900   6.588E-01
   30.000   6.516E-01
 
 Z=  34 A=  92  D1M-QRPA
   E[MeV]   fQRPA[mb/MeV]
    0.100   1.266E-04
    0.200   5.063E-04
    0.300   1.139E-03
    0.400   2.026E-03
    0.500   3.166E-03
    0.600   4.561E-03
    0.700   6.210E-03
    0.800   8.115E-03
    0.900   1.028E-02
    1.000   1.269E-02
    1.100   1.537E-02
    1.200   1.831E-02
    1.300   2.150E-02
    1.400   2.497E-02
    1.500   2.870E-02
    1.600   3.269E-02
    1.700   3.696E-02
    1.800   4.151E-02
    1.900   4.634E-02
    2.000   5.145E-02
    2.100   5.685E-02
    2.200   6.255E-02
    2.300   6.855E-02
    2.400   7.486E-02
    2.500   8.148E-02
    2.600   8.842E-02
    2.700   9.570E-02
    2.800   1.033E-01
    2.900   1.113E-01
    3.000   1.196E-01
    3.100   1.283E-01
    3.200   1.374E-01
    3.300   1.469E-01
    3.400   1.568E-01
    3.500   1.671E-01
    3.600   1.778E-01
    3.700   1.890E-01
    3.800   2.006E-01
    3.900   2.127E-01
    4.000   2.253E-01
    4.100   2.385E-01
    4.200   2.521E-01
    4.300   2.663E-01
    4.400   2.810E-01
    4.500   2.964E-01
    4.600   3.123E-01
    4.700   3.288E-01
    4.800   3.459E-01
    4.900   3.637E-01
    5.000   3.822E-01
    5.100   4.013E-01
    5.200   4.212E-01
    5.300   4.418E-01
    5.400   4.630E-01
    5.500   4.851E-01
    5.600   5.079E-01
    5.700   5.315E-01
    5.800   5.559E-01
    5.900   5.811E-01
    6.000   6.071E-01
    6.100   6.340E-01
    6.200   6.617E-01
    6.300   6.902E-01
    6.400   7.197E-01
    6.500   7.500E-01
    6.600   7.811E-01
    6.700   8.132E-01
    6.800   8.461E-01
    6.900   8.800E-01
    7.000   9.147E-01
    7.100   9.504E-01
    7.200   9.870E-01
    7.300   1.025E+00
    7.400   1.063E+00
    7.500   1.103E+00
    7.600   1.143E+00
    7.700   1.184E+00
    7.800   1.227E+00
    7.900   1.271E+00
    8.000   1.316E+00
    8.100   1.362E+00
    8.200   1.409E+00
    8.300   1.458E+00
    8.400   1.508E+00
    8.500   1.559E+00
    8.600   1.612E+00
    8.700   1.667E+00
    8.800   1.724E+00
    8.900   1.782E+00
    9.000   1.843E+00
    9.100   1.905E+00
    9.200   1.970E+00
    9.300   2.037E+00
    9.400   2.107E+00
    9.500   2.179E+00
    9.600   2.254E+00
    9.700   2.331E+00
    9.800   2.412E+00
    9.900   2.495E+00
   10.000   2.582E+00
   10.100   2.672E+00
   10.200   2.765E+00
   10.300   2.862E+00
   10.400   2.963E+00
   10.500   3.067E+00
   10.600   3.175E+00
   10.700   3.287E+00
   10.800   3.402E+00
   10.900   3.522E+00
   11.000   3.646E+00
   11.100   3.774E+00
   11.200   3.906E+00
   11.300   4.042E+00
   11.400   4.182E+00
   11.500   4.326E+00
   11.600   4.474E+00
   11.700   4.627E+00
   11.800   4.783E+00
   11.900   4.943E+00
   12.000   5.106E+00
   12.100   5.272E+00
   12.200   5.442E+00
   12.300   5.615E+00
   12.400   5.790E+00
   12.500   5.967E+00
   12.600   6.146E+00
   12.700   6.327E+00
   12.800   6.508E+00
   12.900   6.690E+00
   13.000   6.871E+00
   13.100   7.052E+00
   13.200   7.231E+00
   13.300   7.409E+00
   13.400   7.583E+00
   13.500   7.754E+00
   13.600   7.921E+00
   13.700   8.084E+00
   13.800   8.240E+00
   13.900   8.391E+00
   14.000   8.534E+00
   14.100   8.670E+00
   14.200   8.797E+00
   14.300   8.916E+00
   14.400   9.025E+00
   14.500   9.124E+00
   14.600   9.213E+00
   14.700   9.292E+00
   14.800   9.359E+00
   14.900   9.416E+00
   15.000   9.462E+00
   15.100   9.497E+00
   15.200   9.520E+00
   15.300   9.533E+00
   15.400   9.535E+00
   15.500   9.527E+00
   15.600   9.508E+00
   15.700   9.479E+00
   15.800   9.440E+00
   15.900   9.392E+00
   16.000   9.334E+00
   16.100   9.268E+00
   16.200   9.194E+00
   16.300   9.111E+00
   16.400   9.021E+00
   16.500   8.924E+00
   16.600   8.819E+00
   16.700   8.709E+00
   16.800   8.592E+00
   16.900   8.469E+00
   17.000   8.342E+00
   17.100   8.210E+00
   17.200   8.073E+00
   17.300   7.933E+00
   17.400   7.790E+00
   17.500   7.644E+00
   17.600   7.496E+00
   17.700   7.346E+00
   17.800   7.196E+00
   17.900   7.044E+00
   18.000   6.892E+00
   18.100   6.741E+00
   18.200   6.590E+00
   18.300   6.440E+00
   18.400   6.292E+00
   18.500   6.145E+00
   18.600   6.000E+00
   18.700   5.857E+00
   18.800   5.717E+00
   18.900   5.579E+00
   19.000   5.444E+00
   19.100   5.312E+00
   19.200   5.183E+00
   19.300   5.057E+00
   19.400   4.934E+00
   19.500   4.814E+00
   19.600   4.697E+00
   19.700   4.583E+00
   19.800   4.472E+00
   19.900   4.365E+00
   20.000   4.261E+00
   20.100   4.159E+00
   20.200   4.061E+00
   20.300   3.965E+00
   20.400   3.873E+00
   20.500   3.783E+00
   20.600   3.696E+00
   20.700   3.611E+00
   20.800   3.530E+00
   20.900   3.450E+00
   21.000   3.373E+00
   21.100   3.299E+00
   21.200   3.226E+00
   21.300   3.156E+00
   21.400   3.088E+00
   21.500   3.022E+00
   21.600   2.958E+00
   21.700   2.896E+00
   21.800   2.836E+00
   21.900   2.778E+00
   22.000   2.722E+00
   22.100   2.667E+00
   22.200   2.613E+00
   22.300   2.562E+00
   22.400   2.512E+00
   22.500   2.463E+00
   22.600   2.416E+00
   22.700   2.370E+00
   22.800   2.325E+00
   22.900   2.282E+00
   23.000   2.239E+00
   23.100   2.198E+00
   23.200   2.159E+00
   23.300   2.120E+00
   23.400   2.082E+00
   23.500   2.045E+00
   23.600   2.010E+00
   23.700   1.975E+00
   23.800   1.941E+00
   23.900   1.908E+00
   24.000   1.876E+00
   24.100   1.845E+00
   24.200   1.814E+00
   24.300   1.785E+00
   24.400   1.756E+00
   24.500   1.728E+00
   24.600   1.700E+00
   24.700   1.673E+00
   24.800   1.647E+00
   24.900   1.622E+00
   25.000   1.597E+00
   25.100   1.573E+00
   25.200   1.549E+00
   25.300   1.526E+00
   25.400   1.503E+00
   25.500   1.481E+00
   25.600   1.459E+00
   25.700   1.438E+00
   25.800   1.418E+00
   25.900   1.398E+00
   26.000   1.378E+00
   26.100   1.359E+00
   26.200   1.340E+00
   26.300   1.321E+00
   26.400   1.303E+00
   26.500   1.286E+00
   26.600   1.268E+00
   26.700   1.251E+00
   26.800   1.235E+00
   26.900   1.219E+00
   27.000   1.203E+00
   27.100   1.187E+00
   27.200   1.172E+00
   27.300   1.157E+00
   27.400   1.143E+00
   27.500   1.128E+00
   27.600   1.114E+00
   27.700   1.100E+00
   27.800   1.087E+00
   27.900   1.074E+00
   28.000   1.061E+00
   28.100   1.048E+00
   28.200   1.036E+00
   28.300   1.023E+00
   28.400   1.011E+00
   28.500   9.995E-01
   28.600   9.879E-01
   28.700   9.766E-01
   28.800   9.654E-01
   28.900   9.544E-01
   29.000   9.437E-01
   29.100   9.331E-01
   29.200   9.228E-01
   29.300   9.126E-01
   29.400   9.026E-01
   29.500   8.927E-01
   29.600   8.831E-01
   29.700   8.736E-01
   29.800   8.642E-01
   29.900   8.551E-01
   30.000   8.460E-01
 
