 Z=  36 A=  84  D1M-QRPA
   E[MeV]   fQRPA[mb/MeV]
    0.100   2.937E-05
    0.200   1.175E-04
    0.300   2.645E-04
    0.400   4.705E-04
    0.500   7.358E-04
    0.600   1.060E-03
    0.700   1.445E-03
    0.800   1.890E-03
    0.900   2.395E-03
    1.000   2.961E-03
    1.100   3.589E-03
    1.200   4.280E-03
    1.300   5.033E-03
    1.400   5.850E-03
    1.500   6.732E-03
    1.600   7.679E-03
    1.700   8.693E-03
    1.800   9.774E-03
    1.900   1.092E-02
    2.000   1.214E-02
    2.100   1.343E-02
    2.200   1.480E-02
    2.300   1.623E-02
    2.400   1.775E-02
    2.500   1.934E-02
    2.600   2.100E-02
    2.700   2.275E-02
    2.800   2.458E-02
    2.900   2.650E-02
    3.000   2.850E-02
    3.100   3.059E-02
    3.200   3.277E-02
    3.300   3.505E-02
    3.400   3.742E-02
    3.500   3.989E-02
    3.600   4.247E-02
    3.700   4.515E-02
    3.800   4.793E-02
    3.900   5.083E-02
    4.000   5.385E-02
    4.100   5.698E-02
    4.200   6.024E-02
    4.300   6.362E-02
    4.400   6.714E-02
    4.500   7.079E-02
    4.600   7.458E-02
    4.700   7.852E-02
    4.800   8.261E-02
    4.900   8.686E-02
    5.000   9.127E-02
    5.100   9.585E-02
    5.200   1.006E-01
    5.300   1.056E-01
    5.400   1.107E-01
    5.500   1.160E-01
    5.600   1.216E-01
    5.700   1.273E-01
    5.800   1.333E-01
    5.900   1.395E-01
    6.000   1.460E-01
    6.100   1.527E-01
    6.200   1.597E-01
    6.300   1.669E-01
    6.400   1.745E-01
    6.500   1.824E-01
    6.600   1.906E-01
    6.700   1.991E-01
    6.800   2.080E-01
    6.900   2.172E-01
    7.000   2.269E-01
    7.100   2.369E-01
    7.200   2.474E-01
    7.300   2.584E-01
    7.400   2.698E-01
    7.500   2.817E-01
    7.600   2.942E-01
    7.700   3.072E-01
    7.800   3.208E-01
    7.900   3.350E-01
    8.000   3.499E-01
    8.100   3.654E-01
    8.200   3.817E-01
    8.300   3.988E-01
    8.400   4.167E-01
    8.500   4.354E-01
    8.600   4.550E-01
    8.700   4.756E-01
    8.800   4.972E-01
    8.900   5.199E-01
    9.000   5.437E-01
    9.100   5.687E-01
    9.200   5.949E-01
    9.300   6.225E-01
    9.400   6.515E-01
    9.500   6.819E-01
    9.600   7.139E-01
    9.700   7.475E-01
    9.800   7.829E-01
    9.900   8.200E-01
   10.000   8.591E-01
   10.100   9.002E-01
   10.200   9.434E-01
   10.300   9.888E-01
   10.400   1.037E+00
   10.500   1.087E+00
   10.600   1.140E+00
   10.700   1.195E+00
   10.800   1.254E+00
   10.900   1.316E+00
   11.000   1.380E+00
   11.100   1.449E+00
   11.200   1.521E+00
   11.300   1.596E+00
   11.400   1.676E+00
   11.500   1.759E+00
   11.600   1.846E+00
   11.700   1.938E+00
   11.800   2.033E+00
   11.900   2.133E+00
   12.000   2.237E+00
   12.100   2.345E+00
   12.200   2.458E+00
   12.300   2.574E+00
   12.400   2.695E+00
   12.500   2.819E+00
   12.600   2.948E+00
   12.700   3.081E+00
   12.800   3.218E+00
   12.900   3.360E+00
   13.000   3.506E+00
   13.100   3.656E+00
   13.200   3.811E+00
   13.300   3.971E+00
   13.400   4.136E+00
   13.500   4.306E+00
   13.600   4.481E+00
   13.700   4.661E+00
   13.800   4.848E+00
   13.900   5.042E+00
   14.000   5.242E+00
   14.100   5.451E+00
   14.200   5.668E+00
   14.300   5.896E+00
   14.400   6.133E+00
   14.500   6.382E+00
   14.600   6.643E+00
   14.700   6.917E+00
   14.800   7.202E+00
   14.900   7.498E+00
   15.000   7.804E+00
   15.100   8.118E+00
   15.200   8.437E+00
   15.300   8.758E+00
   15.400   9.077E+00
   15.500   9.389E+00
   15.600   9.688E+00
   15.700   9.969E+00
   15.800   1.023E+01
   15.900   1.045E+01
   16.000   1.065E+01
   16.100   1.080E+01
   16.200   1.091E+01
   16.300   1.097E+01
   16.400   1.099E+01
   16.500   1.095E+01
   16.600   1.087E+01
   16.700   1.075E+01
   16.800   1.058E+01
   16.900   1.037E+01
   17.000   1.014E+01
   17.100   9.870E+00
   17.200   9.584E+00
   17.300   9.282E+00
   17.400   8.969E+00
   17.500   8.651E+00
   17.600   8.331E+00
   17.700   8.013E+00
   17.800   7.701E+00
   17.900   7.396E+00
   18.000   7.102E+00
   18.100   6.819E+00
   18.200   6.548E+00
   18.300   6.290E+00
   18.400   6.045E+00
   18.500   5.814E+00
   18.600   5.596E+00
   18.700   5.391E+00
   18.800   5.199E+00
   18.900   5.018E+00
   19.000   4.848E+00
   19.100   4.688E+00
   19.200   4.537E+00
   19.300   4.395E+00
   19.400   4.261E+00
   19.500   4.134E+00
   19.600   4.013E+00
   19.700   3.898E+00
   19.800   3.788E+00
   19.900   3.682E+00
   20.000   3.581E+00
   20.100   3.483E+00
   20.200   3.388E+00
   20.300   3.297E+00
   20.400   3.208E+00
   20.500   3.123E+00
   20.600   3.040E+00
   20.700   2.959E+00
   20.800   2.882E+00
   20.900   2.806E+00
   21.000   2.733E+00
   21.100   2.662E+00
   21.200   2.594E+00
   21.300   2.527E+00
   21.400   2.463E+00
   21.500   2.401E+00
   21.600   2.341E+00
   21.700   2.283E+00
   21.800   2.226E+00
   21.900   2.172E+00
   22.000   2.118E+00
   22.100   2.067E+00
   22.200   2.016E+00
   22.300   1.967E+00
   22.400   1.918E+00
   22.500   1.871E+00
   22.600   1.824E+00
   22.700   1.778E+00
   22.800   1.733E+00
   22.900   1.688E+00
   23.000   1.644E+00
   23.100   1.602E+00
   23.200   1.559E+00
   23.300   1.518E+00
   23.400   1.478E+00
   23.500   1.439E+00
   23.600   1.401E+00
   23.700   1.364E+00
   23.800   1.328E+00
   23.900   1.293E+00
   24.000   1.260E+00
   24.100   1.227E+00
   24.200   1.196E+00
   24.300   1.166E+00
   24.400   1.137E+00
   24.500   1.110E+00
   24.600   1.083E+00
   24.700   1.057E+00
   24.800   1.032E+00
   24.900   1.009E+00
   25.000   9.857E-01
   25.100   9.637E-01
   25.200   9.425E-01
   25.300   9.220E-01
   25.400   9.023E-01
   25.500   8.833E-01
   25.600   8.650E-01
   25.700   8.474E-01
   25.800   8.303E-01
   25.900   8.138E-01
   26.000   7.979E-01
   26.100   7.826E-01
   26.200   7.677E-01
   26.300   7.533E-01
   26.400   7.394E-01
   26.500   7.259E-01
   26.600   7.128E-01
   26.700   7.001E-01
   26.800   6.879E-01
   26.900   6.759E-01
   27.000   6.644E-01
   27.100   6.532E-01
   27.200   6.422E-01
   27.300   6.317E-01
   27.400   6.214E-01
   27.500   6.113E-01
   27.600   6.016E-01
   27.700   5.921E-01
   27.800   5.829E-01
   27.900   5.739E-01
   28.000   5.652E-01
   28.100   5.566E-01
   28.200   5.483E-01
   28.300   5.402E-01
   28.400   5.323E-01
   28.500   5.246E-01
   28.600   5.171E-01
   28.700   5.098E-01
   28.800   5.026E-01
   28.900   4.956E-01
   29.000   4.888E-01
   29.100   4.821E-01
   29.200   4.756E-01
   29.300   4.692E-01
   29.400   4.630E-01
   29.500   4.569E-01
   29.600   4.509E-01
   29.700   4.451E-01
   29.800   4.394E-01
   29.900   4.338E-01
   30.000   4.283E-01
 
 Z=  36 A=  85  D1M-QRPA-Inter
 E[MeV]  fQRPA[mb/MeV]
    0.100   2.453E-05
    0.200   9.813E-05
    0.300   2.209E-04
    0.400   3.929E-04
    0.500   6.144E-04
    0.600   8.855E-04
    0.700   1.207E-03
    0.800   1.578E-03
    0.900   2.000E-03
    1.000   2.473E-03
    1.100   2.998E-03
    1.200   3.574E-03
    1.300   4.204E-03
    1.400   4.886E-03
    1.500   5.623E-03
    1.600   6.414E-03
    1.700   7.261E-03
    1.800   8.165E-03
    1.900   9.126E-03
    2.000   1.015E-02
    2.100   1.122E-02
    2.200   1.236E-02
    2.300   1.356E-02
    2.400   1.483E-02
    2.500   1.616E-02
    2.600   1.755E-02
    2.700   1.902E-02
    2.800   2.055E-02
    2.900   2.215E-02
    3.000   2.383E-02
    3.100   2.558E-02
    3.200   2.740E-02
    3.300   2.931E-02
    3.400   3.130E-02
    3.500   3.337E-02
    3.600   3.552E-02
    3.700   3.777E-02
    3.800   4.010E-02
    3.900   4.253E-02
    4.000   4.506E-02
    4.100   4.768E-02
    4.200   5.042E-02
    4.300   5.325E-02
    4.400   5.620E-02
    4.500   5.927E-02
    4.600   6.245E-02
    4.700   6.576E-02
    4.800   6.919E-02
    4.900   7.276E-02
    5.000   7.647E-02
    5.100   8.031E-02
    5.200   8.431E-02
    5.300   8.847E-02
    5.400   9.278E-02
    5.500   9.726E-02
    5.600   1.019E-01
    5.700   1.068E-01
    5.800   1.118E-01
    5.900   1.170E-01
    6.000   1.225E-01
    6.100   1.281E-01
    6.200   1.340E-01
    6.300   1.401E-01
    6.400   1.465E-01
    6.500   1.531E-01
    6.600   1.600E-01
    6.700   1.672E-01
    6.800   1.747E-01
    6.900   1.825E-01
    7.000   1.906E-01
    7.100   1.991E-01
    7.200   2.080E-01
    7.300   2.172E-01
    7.400   2.268E-01
    7.500   2.369E-01
    7.600   2.474E-01
    7.700   2.584E-01
    7.800   2.699E-01
    7.900   2.819E-01
    8.000   2.945E-01
    8.100   3.077E-01
    8.200   3.215E-01
    8.300   3.360E-01
    8.400   3.511E-01
    8.500   3.670E-01
    8.600   3.837E-01
    8.700   4.012E-01
    8.800   4.196E-01
    8.900   4.389E-01
    9.000   4.592E-01
    9.100   4.806E-01
    9.200   5.031E-01
    9.300   5.267E-01
    9.400   5.516E-01
    9.500   5.778E-01
    9.600   6.055E-01
    9.700   6.346E-01
    9.800   6.653E-01
    9.900   6.977E-01
   10.000   7.319E-01
   10.100   7.680E-01
   10.200   8.061E-01
   10.300   8.464E-01
   10.400   8.889E-01
   10.500   9.339E-01
   10.600   9.815E-01
   10.700   1.032E+00
   10.800   1.085E+00
   10.900   1.142E+00
   11.000   1.202E+00
   11.100   1.265E+00
   11.200   1.332E+00
   11.300   1.403E+00
   11.400   1.479E+00
   11.500   1.559E+00
   11.600   1.643E+00
   11.700   1.733E+00
   11.800   1.827E+00
   11.900   1.927E+00
   12.000   2.033E+00
   12.100   2.144E+00
   12.200   2.260E+00
   12.300   2.383E+00
   12.400   2.512E+00
   12.500   2.647E+00
   12.600   2.788E+00
   12.700   2.935E+00
   12.800   3.088E+00
   12.900   3.248E+00
   13.000   3.413E+00
   13.100   3.585E+00
   13.200   3.762E+00
   13.300   3.945E+00
   13.400   4.133E+00
   13.500   4.326E+00
   13.600   4.523E+00
   13.700   4.723E+00
   13.800   4.926E+00
   13.900   5.130E+00
   14.000   5.335E+00
   14.100   5.539E+00
   14.200   5.741E+00
   14.300   5.939E+00
   14.400   6.132E+00
   14.500   6.319E+00
   14.600   6.498E+00
   14.700   6.670E+00
   14.800   6.832E+00
   14.900   6.985E+00
   15.000   7.128E+00
   15.100   7.261E+00
   15.200   7.383E+00
   15.300   7.493E+00
   15.400   7.593E+00
   15.500   7.680E+00
   15.600   7.754E+00
   15.700   7.815E+00
   15.800   7.863E+00
   15.900   7.898E+00
   16.000   7.920E+00
   16.100   7.928E+00
   16.200   7.924E+00
   16.300   7.909E+00
   16.400   7.883E+00
   16.500   7.846E+00
   16.600   7.801E+00
   16.700   7.748E+00
   16.800   7.686E+00
   16.900   7.618E+00
   17.000   7.541E+00
   17.100   7.457E+00
   17.200   7.365E+00
   17.300   7.264E+00
   17.400   7.154E+00
   17.500   7.034E+00
   17.600   6.905E+00
   17.700   6.765E+00
   17.800   6.615E+00
   17.900   6.457E+00
   18.000   6.290E+00
   18.100   6.117E+00
   18.200   5.939E+00
   18.300   5.758E+00
   18.400   5.576E+00
   18.500   5.395E+00
   18.600   5.216E+00
   18.700   5.041E+00
   18.800   4.872E+00
   18.900   4.708E+00
   19.000   4.550E+00
   19.100   4.399E+00
   19.200   4.254E+00
   19.300   4.115E+00
   19.400   3.983E+00
   19.500   3.855E+00
   19.600   3.733E+00
   19.700   3.615E+00
   19.800   3.501E+00
   19.900   3.391E+00
   20.000   3.284E+00
   20.100   3.181E+00
   20.200   3.080E+00
   20.300   2.983E+00
   20.400   2.888E+00
   20.500   2.797E+00
   20.600   2.709E+00
   20.700   2.624E+00
   20.800   2.542E+00
   20.900   2.463E+00
   21.000   2.387E+00
   21.100   2.314E+00
   21.200   2.244E+00
   21.300   2.176E+00
   21.400   2.112E+00
   21.500   2.051E+00
   21.600   1.992E+00
   21.700   1.935E+00
   21.800   1.881E+00
   21.900   1.829E+00
   22.000   1.780E+00
   22.100   1.732E+00
   22.200   1.686E+00
   22.300   1.642E+00
   22.400   1.600E+00
   22.500   1.559E+00
   22.600   1.518E+00
   22.700   1.479E+00
   22.800   1.441E+00
   22.900   1.404E+00
   23.000   1.368E+00
   23.100   1.332E+00
   23.200   1.298E+00
   23.300   1.264E+00
   23.400   1.232E+00
   23.500   1.200E+00
   23.600   1.170E+00
   23.700   1.140E+00
   23.800   1.112E+00
   23.900   1.084E+00
   24.000   1.058E+00
   24.100   1.033E+00
   24.200   1.009E+00
   24.300   9.866E-01
   24.400   9.649E-01
   24.500   9.442E-01
   24.600   9.245E-01
   24.700   9.057E-01
   24.800   8.879E-01
   24.900   8.708E-01
   25.000   8.545E-01
   25.100   8.389E-01
   25.200   8.239E-01
   25.300   8.094E-01
   25.400   7.953E-01
   25.500   7.816E-01
   25.600   7.681E-01
   25.700   7.548E-01
   25.800   7.417E-01
   25.900   7.287E-01
   26.000   7.158E-01
   26.100   7.029E-01
   26.200   6.901E-01
   26.300   6.773E-01
   26.400   6.647E-01
   26.500   6.521E-01
   26.600   6.397E-01
   26.700   6.275E-01
   26.800   6.155E-01
   26.900   6.036E-01
   27.000   5.920E-01
   27.100   5.806E-01
   27.200   5.695E-01
   27.300   5.587E-01
   27.400   5.482E-01
   27.500   5.379E-01
   27.600   5.279E-01
   27.700   5.182E-01
   27.800   5.089E-01
   27.900   4.997E-01
   28.000   4.909E-01
   28.100   4.823E-01
   28.200   4.740E-01
   28.300   4.660E-01
   28.400   4.582E-01
   28.500   4.506E-01
   28.600   4.433E-01
   28.700   4.362E-01
   28.800   4.293E-01
   28.900   4.226E-01
   29.000   4.161E-01
   29.100   4.098E-01
   29.200   4.036E-01
   29.300   3.977E-01
   29.400   3.919E-01
   29.500   3.862E-01
   29.600   3.807E-01
   29.700   3.754E-01
   29.800   3.701E-01
   29.900   3.651E-01
   30.000   3.601E-01
 
 Z=  36 A=  86  D1M-QRPA
   E[MeV]   fQRPA[mb/MeV]
    0.100   1.962E-05
    0.200   7.852E-05
    0.300   1.767E-04
    0.400   3.144E-04
    0.500   4.916E-04
    0.600   7.086E-04
    0.700   9.655E-04
    0.800   1.263E-03
    0.900   1.600E-03
    1.000   1.979E-03
    1.100   2.399E-03
    1.200   2.860E-03
    1.300   3.364E-03
    1.400   3.911E-03
    1.500   4.500E-03
    1.600   5.134E-03
    1.700   5.812E-03
    1.800   6.536E-03
    1.900   7.305E-03
    2.000   8.122E-03
    2.100   8.986E-03
    2.200   9.899E-03
    2.300   1.086E-02
    2.400   1.187E-02
    2.500   1.294E-02
    2.600   1.406E-02
    2.700   1.523E-02
    2.800   1.646E-02
    2.900   1.774E-02
    3.000   1.909E-02
    3.100   2.049E-02
    3.200   2.196E-02
    3.300   2.348E-02
    3.400   2.508E-02
    3.500   2.674E-02
    3.600   2.847E-02
    3.700   3.027E-02
    3.800   3.215E-02
    3.900   3.410E-02
    4.000   3.613E-02
    4.100   3.824E-02
    4.200   4.043E-02
    4.300   4.271E-02
    4.400   4.508E-02
    4.500   4.755E-02
    4.600   5.011E-02
    4.700   5.277E-02
    4.800   5.553E-02
    4.900   5.840E-02
    5.000   6.138E-02
    5.100   6.448E-02
    5.200   6.770E-02
    5.300   7.105E-02
    5.400   7.452E-02
    5.500   7.813E-02
    5.600   8.189E-02
    5.700   8.579E-02
    5.800   8.985E-02
    5.900   9.406E-02
    6.000   9.845E-02
    6.100   1.030E-01
    6.200   1.078E-01
    6.300   1.127E-01
    6.400   1.178E-01
    6.500   1.232E-01
    6.600   1.288E-01
    6.700   1.346E-01
    6.800   1.406E-01
    6.900   1.469E-01
    7.000   1.535E-01
    7.100   1.603E-01
    7.200   1.675E-01
    7.300   1.750E-01
    7.400   1.828E-01
    7.500   1.909E-01
    7.600   1.994E-01
    7.700   2.083E-01
    7.800   2.176E-01
    7.900   2.274E-01
    8.000   2.376E-01
    8.100   2.483E-01
    8.200   2.594E-01
    8.300   2.712E-01
    8.400   2.835E-01
    8.500   2.964E-01
    8.600   3.100E-01
    8.700   3.243E-01
    8.800   3.393E-01
    8.900   3.550E-01
    9.000   3.717E-01
    9.100   3.891E-01
    9.200   4.076E-01
    9.300   4.270E-01
    9.400   4.475E-01
    9.500   4.692E-01
    9.600   4.920E-01
    9.700   5.162E-01
    9.800   5.418E-01
    9.900   5.688E-01
   10.000   5.975E-01
   10.100   6.278E-01
   10.200   6.600E-01
   10.300   6.942E-01
   10.400   7.305E-01
   10.500   7.690E-01
   10.600   8.100E-01
   10.700   8.536E-01
   10.800   9.000E-01
   10.900   9.495E-01
   11.000   1.002E+00
   11.100   1.058E+00
   11.200   1.118E+00
   11.300   1.182E+00
   11.400   1.251E+00
   11.500   1.323E+00
   11.600   1.401E+00
   11.700   1.485E+00
   11.800   1.573E+00
   11.900   1.668E+00
   12.000   1.769E+00
   12.100   1.877E+00
   12.200   1.992E+00
   12.300   2.114E+00
   12.400   2.244E+00
   12.500   2.381E+00
   12.600   2.526E+00
   12.700   2.679E+00
   12.800   2.840E+00
   12.900   3.008E+00
   13.000   3.185E+00
   13.100   3.368E+00
   13.200   3.559E+00
   13.300   3.755E+00
   13.400   3.958E+00
   13.500   4.165E+00
   13.600   4.375E+00
   13.700   4.586E+00
   13.800   4.796E+00
   13.900   5.003E+00
   14.000   5.203E+00
   14.100   5.393E+00
   14.200   5.571E+00
   14.300   5.732E+00
   14.400   5.874E+00
   14.500   5.994E+00
   14.600   6.090E+00
   14.700   6.163E+00
   14.800   6.211E+00
   14.900   6.236E+00
   15.000   6.239E+00
   15.100   6.223E+00
   15.200   6.190E+00
   15.300   6.143E+00
   15.400   6.085E+00
   15.500   6.019E+00
   15.600   5.947E+00
   15.700   5.871E+00
   15.800   5.794E+00
   15.900   5.718E+00
   16.000   5.645E+00
   16.100   5.577E+00
   16.200   5.515E+00
   16.300   5.462E+00
   16.400   5.419E+00
   16.500   5.386E+00
   16.600   5.364E+00
   16.700   5.352E+00
   16.800   5.352E+00
   16.900   5.360E+00
   17.000   5.377E+00
   17.100   5.398E+00
   17.200   5.423E+00
   17.300   5.447E+00
   17.400   5.468E+00
   17.500   5.481E+00
   17.600   5.484E+00
   17.700   5.473E+00
   17.800   5.445E+00
   17.900   5.401E+00
   18.000   5.338E+00
   18.100   5.258E+00
   18.200   5.161E+00
   18.300   5.051E+00
   18.400   4.928E+00
   18.500   4.797E+00
   18.600   4.659E+00
   18.700   4.517E+00
   18.800   4.374E+00
   18.900   4.232E+00
   19.000   4.092E+00
   19.100   3.955E+00
   19.200   3.822E+00
   19.300   3.692E+00
   19.400   3.567E+00
   19.500   3.445E+00
   19.600   3.327E+00
   19.700   3.212E+00
   19.800   3.101E+00
   19.900   2.992E+00
   20.000   2.886E+00
   20.100   2.783E+00
   20.200   2.683E+00
   20.300   2.586E+00
   20.400   2.492E+00
   20.500   2.401E+00
   20.600   2.313E+00
   20.700   2.229E+00
   20.800   2.148E+00
   20.900   2.071E+00
   21.000   1.997E+00
   21.100   1.927E+00
   21.200   1.860E+00
   21.300   1.796E+00
   21.400   1.735E+00
   21.500   1.678E+00
   21.600   1.623E+00
   21.700   1.572E+00
   21.800   1.523E+00
   21.900   1.477E+00
   22.000   1.433E+00
   22.100   1.391E+00
   22.200   1.352E+00
   22.300   1.314E+00
   22.400   1.279E+00
   22.500   1.244E+00
   22.600   1.211E+00
   22.700   1.180E+00
   22.800   1.149E+00
   22.900   1.119E+00
   23.000   1.090E+00
   23.100   1.062E+00
   23.200   1.035E+00
   23.300   1.009E+00
   23.400   9.836E-01
   23.500   9.592E-01
   23.600   9.357E-01
   23.700   9.132E-01
   23.800   8.917E-01
   23.900   8.713E-01
   24.000   8.518E-01
   24.100   8.334E-01
   24.200   8.160E-01
   24.300   7.997E-01
   24.400   7.843E-01
   24.500   7.698E-01
   24.600   7.563E-01
   24.700   7.436E-01
   24.800   7.316E-01
   24.900   7.204E-01
   25.000   7.099E-01
   25.100   6.998E-01
   25.200   6.902E-01
   25.300   6.808E-01
   25.400   6.717E-01
   25.500   6.626E-01
   25.600   6.535E-01
   25.700   6.443E-01
   25.800   6.349E-01
   25.900   6.252E-01
   26.000   6.152E-01
   26.100   6.049E-01
   26.200   5.944E-01
   26.300   5.836E-01
   26.400   5.726E-01
   26.500   5.614E-01
   26.600   5.502E-01
   26.700   5.389E-01
   26.800   5.277E-01
   26.900   5.165E-01
   27.000   5.055E-01
   27.100   4.946E-01
   27.200   4.840E-01
   27.300   4.736E-01
   27.400   4.634E-01
   27.500   4.535E-01
   27.600   4.439E-01
   27.700   4.346E-01
   27.800   4.256E-01
   27.900   4.170E-01
   28.000   4.086E-01
   28.100   4.005E-01
   28.200   3.927E-01
   28.300   3.852E-01
   28.400   3.779E-01
   28.500   3.709E-01
   28.600   3.642E-01
   28.700   3.576E-01
   28.800   3.514E-01
   28.900   3.453E-01
   29.000   3.394E-01
   29.100   3.338E-01
   29.200   3.283E-01
   29.300   3.230E-01
   29.400   3.178E-01
   29.500   3.128E-01
   29.600   3.080E-01
   29.700   3.033E-01
   29.800   2.988E-01
   29.900   2.944E-01
   30.000   2.901E-01
 
 Z=  36 A=  87  D1M-QRPA-Inter
 E[MeV]  fQRPA[mb/MeV]
    0.100   9.206E-05
    0.200   3.667E-04
    0.300   8.193E-04
    0.400   1.443E-03
    0.500   2.227E-03
    0.600   3.160E-03
    0.700   4.229E-03
    0.800   5.421E-03
    0.900   6.721E-03
    1.000   8.116E-03
    1.100   9.591E-03
    1.200   1.114E-02
    1.300   1.274E-02
    1.400   1.439E-02
    1.500   1.608E-02
    1.600   1.781E-02
    1.700   1.956E-02
    1.800   2.134E-02
    1.900   2.315E-02
    2.000   2.498E-02
    2.100   2.684E-02
    2.200   2.872E-02
    2.300   3.063E-02
    2.400   3.257E-02
    2.500   3.455E-02
    2.600   3.657E-02
    2.700   3.863E-02
    2.800   4.075E-02
    2.900   4.292E-02
    3.000   4.516E-02
    3.100   4.747E-02
    3.200   4.985E-02
    3.300   5.231E-02
    3.400   5.486E-02
    3.500   5.750E-02
    3.600   6.025E-02
    3.700   6.310E-02
    3.800   6.606E-02
    3.900   6.914E-02
    4.000   7.234E-02
    4.100   7.568E-02
    4.200   7.915E-02
    4.300   8.277E-02
    4.400   8.654E-02
    4.500   9.047E-02
    4.600   9.456E-02
    4.700   9.883E-02
    4.800   1.033E-01
    4.900   1.079E-01
    5.000   1.127E-01
    5.100   1.178E-01
    5.200   1.230E-01
    5.300   1.285E-01
    5.400   1.342E-01
    5.500   1.401E-01
    5.600   1.463E-01
    5.700   1.528E-01
    5.800   1.595E-01
    5.900   1.665E-01
    6.000   1.739E-01
    6.100   1.815E-01
    6.200   1.895E-01
    6.300   1.978E-01
    6.400   2.064E-01
    6.500   2.155E-01
    6.600   2.249E-01
    6.700   2.347E-01
    6.800   2.450E-01
    6.900   2.557E-01
    7.000   2.669E-01
    7.100   2.786E-01
    7.200   2.907E-01
    7.300   3.035E-01
    7.400   3.167E-01
    7.500   3.306E-01
    7.600   3.451E-01
    7.700   3.602E-01
    7.800   3.760E-01
    7.900   3.925E-01
    8.000   4.098E-01
    8.100   4.278E-01
    8.200   4.466E-01
    8.300   4.663E-01
    8.400   4.868E-01
    8.500   5.083E-01
    8.600   5.308E-01
    8.700   5.543E-01
    8.800   5.789E-01
    8.900   6.046E-01
    9.000   6.315E-01
    9.100   6.597E-01
    9.200   6.892E-01
    9.300   7.200E-01
    9.400   7.523E-01
    9.500   7.862E-01
    9.600   8.216E-01
    9.700   8.588E-01
    9.800   8.977E-01
    9.900   9.385E-01
   10.000   9.812E-01
   10.100   1.026E+00
   10.200   1.073E+00
   10.300   1.122E+00
   10.400   1.174E+00
   10.500   1.229E+00
   10.600   1.286E+00
   10.700   1.345E+00
   10.800   1.408E+00
   10.900   1.474E+00
   11.000   1.544E+00
   11.100   1.617E+00
   11.200   1.694E+00
   11.300   1.775E+00
   11.400   1.861E+00
   11.500   1.951E+00
   11.600   2.045E+00
   11.700   2.146E+00
   11.800   2.251E+00
   11.900   2.363E+00
   12.000   2.480E+00
   12.100   2.605E+00
   12.200   2.735E+00
   12.300   2.874E+00
   12.400   3.019E+00
   12.500   3.172E+00
   12.600   3.333E+00
   12.700   3.502E+00
   12.800   3.679E+00
   12.900   3.864E+00
   13.000   4.057E+00
   13.100   4.258E+00
   13.200   4.467E+00
   13.300   4.683E+00
   13.400   4.907E+00
   13.500   5.136E+00
   13.600   5.371E+00
   13.700   5.609E+00
   13.800   5.850E+00
   13.900   6.090E+00
   14.000   6.329E+00
   14.100   6.562E+00
   14.200   6.788E+00
   14.300   7.003E+00
   14.400   7.204E+00
   14.500   7.389E+00
   14.600   7.555E+00
   14.700   7.701E+00
   14.800   7.824E+00
   14.900   7.925E+00
   15.000   8.003E+00
   15.100   8.058E+00
   15.200   8.092E+00
   15.300   8.104E+00
   15.400   8.097E+00
   15.500   8.073E+00
   15.600   8.032E+00
   15.700   7.978E+00
   15.800   7.912E+00
   15.900   7.835E+00
   16.000   7.752E+00
   16.100   7.662E+00
   16.200   7.570E+00
   16.300   7.476E+00
   16.400   7.382E+00
   16.500   7.290E+00
   16.600   7.201E+00
   16.700   7.115E+00
   16.800   7.033E+00
   16.900   6.954E+00
   17.000   6.878E+00
   17.100   6.803E+00
   17.200   6.728E+00
   17.300   6.653E+00
   17.400   6.574E+00
   17.500   6.490E+00
   17.600   6.400E+00
   17.700   6.303E+00
   17.800   6.198E+00
   17.900   6.084E+00
   18.000   5.961E+00
   18.100   5.830E+00
   18.200   5.692E+00
   18.300   5.549E+00
   18.400   5.401E+00
   18.500   5.250E+00
   18.600   5.097E+00
   18.700   4.945E+00
   18.800   4.794E+00
   18.900   4.646E+00
   19.000   4.500E+00
   19.100   4.358E+00
   19.200   4.220E+00
   19.300   4.086E+00
   19.400   3.955E+00
   19.500   3.829E+00
   19.600   3.707E+00
   19.700   3.588E+00
   19.800   3.472E+00
   19.900   3.360E+00
   20.000   3.251E+00
   20.100   3.145E+00
   20.200   3.042E+00
   20.300   2.943E+00
   20.400   2.846E+00
   20.500   2.753E+00
   20.600   2.664E+00
   20.700   2.578E+00
   20.800   2.495E+00
   20.900   2.415E+00
   21.000   2.339E+00
   21.100   2.266E+00
   21.200   2.196E+00
   21.300   2.129E+00
   21.400   2.065E+00
   21.500   2.004E+00
   21.600   1.946E+00
   21.700   1.890E+00
   21.800   1.837E+00
   21.900   1.786E+00
   22.000   1.738E+00
   22.100   1.691E+00
   22.200   1.647E+00
   22.300   1.605E+00
   22.400   1.564E+00
   22.500   1.525E+00
   22.600   1.488E+00
   22.700   1.452E+00
   22.800   1.417E+00
   22.900   1.383E+00
   23.000   1.350E+00
   23.100   1.318E+00
   23.200   1.288E+00
   23.300   1.258E+00
   23.400   1.229E+00
   23.500   1.201E+00
   23.600   1.174E+00
   23.700   1.149E+00
   23.800   1.124E+00
   23.900   1.100E+00
   24.000   1.077E+00
   24.100   1.055E+00
   24.200   1.034E+00
   24.300   1.014E+00
   24.400   9.954E-01
   24.500   9.772E-01
   24.600   9.598E-01
   24.700   9.432E-01
   24.800   9.274E-01
   24.900   9.122E-01
   25.000   8.977E-01
   25.100   8.837E-01
   25.200   8.701E-01
   25.300   8.570E-01
   25.400   8.442E-01
   25.500   8.316E-01
   25.600   8.191E-01
   25.700   8.068E-01
   25.800   7.945E-01
   25.900   7.822E-01
   26.000   7.698E-01
   26.100   7.575E-01
   26.200   7.451E-01
   26.300   7.327E-01
   26.400   7.203E-01
   26.500   7.079E-01
   26.600   6.956E-01
   26.700   6.834E-01
   26.800   6.713E-01
   26.900   6.594E-01
   27.000   6.477E-01
   27.100   6.362E-01
   27.200   6.249E-01
   27.300   6.138E-01
   27.400   6.030E-01
   27.500   5.925E-01
   27.600   5.822E-01
   27.700   5.722E-01
   27.800   5.625E-01
   27.900   5.531E-01
   28.000   5.439E-01
   28.100   5.350E-01
   28.200   5.263E-01
   28.300   5.179E-01
   28.400   5.098E-01
   28.500   5.019E-01
   28.600   4.942E-01
   28.700   4.867E-01
   28.800   4.794E-01
   28.900   4.724E-01
   29.000   4.655E-01
   29.100   4.588E-01
   29.200   4.523E-01
   29.300   4.460E-01
   29.400   4.398E-01
   29.500   4.338E-01
   29.600   4.280E-01
   29.700   4.223E-01
   29.800   4.167E-01
   29.900   4.113E-01
   30.000   4.059E-01
 
 Z=  36 A=  88  D1M-QRPA
   E[MeV]   fQRPA[mb/MeV]
    0.100   4.080E-04
    0.200   1.618E-03
    0.300   3.588E-03
    0.400   6.253E-03
    0.500   9.527E-03
    0.600   1.331E-02
    0.700   1.750E-02
    0.800   2.199E-02
    0.900   2.667E-02
    1.000   3.144E-02
    1.100   3.623E-02
    1.200   4.096E-02
    1.300   4.557E-02
    1.400   5.002E-02
    1.500   5.429E-02
    1.600   5.835E-02
    1.700   6.220E-02
    1.800   6.585E-02
    1.900   6.931E-02
    2.000   7.259E-02
    2.100   7.571E-02
    2.200   7.870E-02
    2.300   8.158E-02
    2.400   8.438E-02
    2.500   8.713E-02
    2.600   8.985E-02
    2.700   9.257E-02
    2.800   9.531E-02
    2.900   9.810E-02
    3.000   1.009E-01
    3.100   1.039E-01
    3.200   1.069E-01
    3.300   1.101E-01
    3.400   1.134E-01
    3.500   1.168E-01
    3.600   1.204E-01
    3.700   1.242E-01
    3.800   1.282E-01
    3.900   1.324E-01
    4.000   1.368E-01
    4.100   1.415E-01
    4.200   1.464E-01
    4.300   1.515E-01
    4.400   1.569E-01
    4.500   1.626E-01
    4.600   1.686E-01
    4.700   1.749E-01
    4.800   1.814E-01
    4.900   1.884E-01
    5.000   1.956E-01
    5.100   2.032E-01
    5.200   2.112E-01
    5.300   2.195E-01
    5.400   2.283E-01
    5.500   2.374E-01
    5.600   2.470E-01
    5.700   2.571E-01
    5.800   2.676E-01
    5.900   2.786E-01
    6.000   2.901E-01
    6.100   3.021E-01
    6.200   3.147E-01
    6.300   3.279E-01
    6.400   3.416E-01
    6.500   3.560E-01
    6.600   3.711E-01
    6.700   3.868E-01
    6.800   4.032E-01
    6.900   4.204E-01
    7.000   4.384E-01
    7.100   4.571E-01
    7.200   4.767E-01
    7.300   4.972E-01
    7.400   5.186E-01
    7.500   5.409E-01
    7.600   5.641E-01
    7.700   5.884E-01
    7.800   6.137E-01
    7.900   6.401E-01
    8.000   6.676E-01
    8.100   6.963E-01
    8.200   7.262E-01
    8.300   7.573E-01
    8.400   7.897E-01
    8.500   8.235E-01
    8.600   8.586E-01
    8.700   8.951E-01
    8.800   9.331E-01
    8.900   9.726E-01
    9.000   1.014E+00
    9.100   1.056E+00
    9.200   1.101E+00
    9.300   1.147E+00
    9.400   1.195E+00
    9.500   1.245E+00
    9.600   1.296E+00
    9.700   1.350E+00
    9.800   1.405E+00
    9.900   1.463E+00
   10.000   1.522E+00
   10.100   1.584E+00
   10.200   1.648E+00
   10.300   1.714E+00
   10.400   1.783E+00
   10.500   1.854E+00
   10.600   1.927E+00
   10.700   2.003E+00
   10.800   2.082E+00
   10.900   2.163E+00
   11.000   2.247E+00
   11.100   2.334E+00
   11.200   2.425E+00
   11.300   2.518E+00
   11.400   2.615E+00
   11.500   2.716E+00
   11.600   2.820E+00
   11.700   2.929E+00
   11.800   3.043E+00
   11.900   3.161E+00
   12.000   3.284E+00
   12.100   3.413E+00
   12.200   3.548E+00
   12.300   3.689E+00
   12.400   3.837E+00
   12.500   3.992E+00
   12.600   4.154E+00
   12.700   4.324E+00
   12.800   4.502E+00
   12.900   4.688E+00
   13.000   4.882E+00
   13.100   5.085E+00
   13.200   5.297E+00
   13.300   5.518E+00
   13.400   5.747E+00
   13.500   5.984E+00
   13.600   6.229E+00
   13.700   6.481E+00
   13.800   6.740E+00
   13.900   7.004E+00
   14.000   7.272E+00
   14.100   7.542E+00
   14.200   7.813E+00
   14.300   8.082E+00
   14.400   8.347E+00
   14.500   8.605E+00
   14.600   8.854E+00
   14.700   9.091E+00
   14.800   9.312E+00
   14.900   9.516E+00
   15.000   9.698E+00
   15.100   9.858E+00
   15.200   9.992E+00
   15.300   1.010E+01
   15.400   1.018E+01
   15.500   1.023E+01
   15.600   1.025E+01
   15.700   1.024E+01
   15.800   1.021E+01
   15.900   1.014E+01
   16.000   1.006E+01
   16.100   9.946E+00
   16.200   9.815E+00
   16.300   9.666E+00
   16.400   9.500E+00
   16.500   9.322E+00
   16.600   9.133E+00
   16.700   8.935E+00
   16.800   8.731E+00
   16.900   8.522E+00
   17.000   8.311E+00
   17.100   8.098E+00
   17.200   7.886E+00
   17.300   7.675E+00
   17.400   7.466E+00
   17.500   7.260E+00
   17.600   7.057E+00
   17.700   6.859E+00
   17.800   6.664E+00
   17.900   6.474E+00
   18.000   6.288E+00
   18.100   6.107E+00
   18.200   5.931E+00
   18.300   5.759E+00
   18.400   5.591E+00
   18.500   5.428E+00
   18.600   5.269E+00
   18.700   5.114E+00
   18.800   4.964E+00
   18.900   4.817E+00
   19.000   4.675E+00
   19.100   4.536E+00
   19.200   4.402E+00
   19.300   4.271E+00
   19.400   4.144E+00
   19.500   4.020E+00
   19.600   3.901E+00
   19.700   3.785E+00
   19.800   3.672E+00
   19.900   3.564E+00
   20.000   3.458E+00
   20.100   3.356E+00
   20.200   3.258E+00
   20.300   3.163E+00
   20.400   3.072E+00
   20.500   2.983E+00
   20.600   2.898E+00
   20.700   2.816E+00
   20.800   2.737E+00
   20.900   2.661E+00
   21.000   2.588E+00
   21.100   2.517E+00
   21.200   2.449E+00
   21.300   2.384E+00
   21.400   2.321E+00
   21.500   2.261E+00
   21.600   2.203E+00
   21.700   2.147E+00
   21.800   2.093E+00
   21.900   2.041E+00
   22.000   1.991E+00
   22.100   1.943E+00
   22.200   1.896E+00
   22.300   1.851E+00
   22.400   1.808E+00
   22.500   1.767E+00
   22.600   1.726E+00
   22.700   1.688E+00
   22.800   1.650E+00
   22.900   1.614E+00
   23.000   1.579E+00
   23.100   1.546E+00
   23.200   1.513E+00
   23.300   1.481E+00
   23.400   1.451E+00
   23.500   1.421E+00
   23.600   1.393E+00
   23.700   1.365E+00
   23.800   1.338E+00
   23.900   1.312E+00
   24.000   1.287E+00
   24.100   1.263E+00
   24.200   1.239E+00
   24.300   1.216E+00
   24.400   1.194E+00
   24.500   1.172E+00
   24.600   1.151E+00
   24.700   1.130E+00
   24.800   1.110E+00
   24.900   1.091E+00
   25.000   1.072E+00
   25.100   1.054E+00
   25.200   1.036E+00
   25.300   1.019E+00
   25.400   1.002E+00
   25.500   9.859E-01
   25.600   9.699E-01
   25.700   9.544E-01
   25.800   9.392E-01
   25.900   9.244E-01
   26.000   9.101E-01
   26.100   8.960E-01
   26.200   8.823E-01
   26.300   8.690E-01
   26.400   8.560E-01
   26.500   8.432E-01
   26.600   8.308E-01
   26.700   8.187E-01
   26.800   8.069E-01
   26.900   7.953E-01
   27.000   7.840E-01
   27.100   7.730E-01
   27.200   7.622E-01
   27.300   7.516E-01
   27.400   7.413E-01
   27.500   7.312E-01
   27.600   7.214E-01
   27.700   7.117E-01
   27.800   7.023E-01
   27.900   6.930E-01
   28.000   6.840E-01
   28.100   6.751E-01
   28.200   6.665E-01
   28.300   6.580E-01
   28.400   6.496E-01
   28.500   6.415E-01
   28.600   6.335E-01
   28.700   6.257E-01
   28.800   6.180E-01
   28.900   6.105E-01
   29.000   6.031E-01
   29.100   5.959E-01
   29.200   5.888E-01
   29.300   5.818E-01
   29.400   5.750E-01
   29.500   5.683E-01
   29.600   5.617E-01
   29.700   5.553E-01
   29.800   5.490E-01
   29.900   5.427E-01
   30.000   5.366E-01
 
 Z=  36 A=  89  D1M-QRPA-Inter
 E[MeV]  fQRPA[mb/MeV]
    0.100   1.641E-04
    0.200   6.538E-04
    0.300   1.461E-03
    0.400   2.573E-03
    0.500   3.972E-03
    0.600   5.638E-03
    0.700   7.549E-03
    0.800   9.680E-03
    0.900   1.201E-02
    1.000   1.450E-02
    1.100   1.715E-02
    1.200   1.992E-02
    1.300   2.280E-02
    1.400   2.577E-02
    1.500   2.882E-02
    1.600   3.194E-02
    1.700   3.511E-02
    1.800   3.834E-02
    1.900   4.163E-02
    2.000   4.496E-02
    2.100   4.834E-02
    2.200   5.179E-02
    2.300   5.529E-02
    2.400   5.887E-02
    2.500   6.252E-02
    2.600   6.627E-02
    2.700   7.011E-02
    2.800   7.406E-02
    2.900   7.813E-02
    3.000   8.234E-02
    3.100   8.669E-02
    3.200   9.119E-02
    3.300   9.587E-02
    3.400   1.007E-01
    3.500   1.058E-01
    3.600   1.111E-01
    3.700   1.166E-01
    3.800   1.223E-01
    3.900   1.283E-01
    4.000   1.346E-01
    4.100   1.411E-01
    4.200   1.479E-01
    4.300   1.551E-01
    4.400   1.626E-01
    4.500   1.704E-01
    4.600   1.785E-01
    4.700   1.871E-01
    4.800   1.960E-01
    4.900   2.053E-01
    5.000   2.150E-01
    5.100   2.252E-01
    5.200   2.358E-01
    5.300   2.468E-01
    5.400   2.583E-01
    5.500   2.703E-01
    5.600   2.828E-01
    5.700   2.958E-01
    5.800   3.093E-01
    5.900   3.233E-01
    6.000   3.379E-01
    6.100   3.530E-01
    6.200   3.687E-01
    6.300   3.850E-01
    6.400   4.019E-01
    6.500   4.194E-01
    6.600   4.375E-01
    6.700   4.564E-01
    6.800   4.759E-01
    6.900   4.961E-01
    7.000   5.172E-01
    7.100   5.389E-01
    7.200   5.616E-01
    7.300   5.850E-01
    7.400   6.094E-01
    7.500   6.346E-01
    7.600   6.608E-01
    7.700   6.880E-01
    7.800   7.162E-01
    7.900   7.455E-01
    8.000   7.758E-01
    8.100   8.072E-01
    8.200   8.398E-01
    8.300   8.736E-01
    8.400   9.086E-01
    8.500   9.448E-01
    8.600   9.823E-01
    8.700   1.021E+00
    8.800   1.061E+00
    8.900   1.103E+00
    9.000   1.146E+00
    9.100   1.191E+00
    9.200   1.237E+00
    9.300   1.285E+00
    9.400   1.334E+00
    9.500   1.385E+00
    9.600   1.438E+00
    9.700   1.493E+00
    9.800   1.550E+00
    9.900   1.608E+00
   10.000   1.669E+00
   10.100   1.732E+00
   10.200   1.797E+00
   10.300   1.865E+00
   10.400   1.935E+00
   10.500   2.008E+00
   10.600   2.083E+00
   10.700   2.161E+00
   10.800   2.242E+00
   10.900   2.325E+00
   11.000   2.412E+00
   11.100   2.503E+00
   11.200   2.596E+00
   11.300   2.694E+00
   11.400   2.795E+00
   11.500   2.901E+00
   11.600   3.011E+00
   11.700   3.125E+00
   11.800   3.245E+00
   11.900   3.369E+00
   12.000   3.499E+00
   12.100   3.635E+00
   12.200   3.777E+00
   12.300   3.924E+00
   12.400   4.079E+00
   12.500   4.239E+00
   12.600   4.407E+00
   12.700   4.581E+00
   12.800   4.762E+00
   12.900   4.950E+00
   13.000   5.144E+00
   13.100   5.345E+00
   13.200   5.551E+00
   13.300   5.763E+00
   13.400   5.980E+00
   13.500   6.201E+00
   13.600   6.425E+00
   13.700   6.651E+00
   13.800   6.879E+00
   13.900   7.107E+00
   14.000   7.334E+00
   14.100   7.557E+00
   14.200   7.777E+00
   14.300   7.992E+00
   14.400   8.199E+00
   14.500   8.398E+00
   14.600   8.587E+00
   14.700   8.764E+00
   14.800   8.928E+00
   14.900   9.079E+00
   15.000   9.214E+00
   15.100   9.332E+00
   15.200   9.434E+00
   15.300   9.518E+00
   15.400   9.583E+00
   15.500   9.630E+00
   15.600   9.659E+00
   15.700   9.669E+00
   15.800   9.660E+00
   15.900   9.634E+00
   16.000   9.591E+00
   16.100   9.532E+00
   16.200   9.457E+00
   16.300   9.367E+00
   16.400   9.264E+00
   16.500   9.148E+00
   16.600   9.022E+00
   16.700   8.884E+00
   16.800   8.738E+00
   16.900   8.584E+00
   17.000   8.423E+00
   17.100   8.256E+00
   17.200   8.084E+00
   17.300   7.909E+00
   17.400   7.731E+00
   17.500   7.551E+00
   17.600   7.370E+00
   17.700   7.189E+00
   17.800   7.009E+00
   17.900   6.829E+00
   18.000   6.652E+00
   18.100   6.476E+00
   18.200   6.303E+00
   18.300   6.133E+00
   18.400   5.966E+00
   18.500   5.803E+00
   18.600   5.643E+00
   18.700   5.488E+00
   18.800   5.336E+00
   18.900   5.188E+00
   19.000   5.045E+00
   19.100   4.905E+00
   19.200   4.770E+00
   19.300   4.639E+00
   19.400   4.512E+00
   19.500   4.389E+00
   19.600   4.270E+00
   19.700   4.155E+00
   19.800   4.044E+00
   19.900   3.936E+00
   20.000   3.833E+00
   20.100   3.733E+00
   20.200   3.637E+00
   20.300   3.544E+00
   20.400   3.454E+00
   20.500   3.368E+00
   20.600   3.285E+00
   20.700   3.204E+00
   20.800   3.126E+00
   20.900   3.051E+00
   21.000   2.979E+00
   21.100   2.908E+00
   21.200   2.840E+00
   21.300   2.774E+00
   21.400   2.710E+00
   21.500   2.647E+00
   21.600   2.587E+00
   21.700   2.528E+00
   21.800   2.470E+00
   21.900   2.414E+00
   22.000   2.360E+00
   22.100   2.307E+00
   22.200   2.255E+00
   22.300   2.205E+00
   22.400   2.156E+00
   22.500   2.109E+00
   22.600   2.062E+00
   22.700   2.017E+00
   22.800   1.974E+00
   22.900   1.931E+00
   23.000   1.889E+00
   23.100   1.849E+00
   23.200   1.810E+00
   23.300   1.772E+00
   23.400   1.735E+00
   23.500   1.699E+00
   23.600   1.663E+00
   23.700   1.629E+00
   23.800   1.596E+00
   23.900   1.564E+00
   24.000   1.532E+00
   24.100   1.501E+00
   24.200   1.471E+00
   24.300   1.442E+00
   24.400   1.414E+00
   24.500   1.386E+00
   24.600   1.359E+00
   24.700   1.332E+00
   24.800   1.306E+00
   24.900   1.281E+00
   25.000   1.257E+00
   25.100   1.233E+00
   25.200   1.209E+00
   25.300   1.187E+00
   25.400   1.164E+00
   25.500   1.143E+00
   25.600   1.122E+00
   25.700   1.101E+00
   25.800   1.081E+00
   25.900   1.062E+00
   26.000   1.043E+00
   26.100   1.024E+00
   26.200   1.006E+00
   26.300   9.888E-01
   26.400   9.718E-01
   26.500   9.552E-01
   26.600   9.391E-01
   26.700   9.235E-01
   26.800   9.082E-01
   26.900   8.934E-01
   27.000   8.790E-01
   27.100   8.649E-01
   27.200   8.512E-01
   27.300   8.379E-01
   27.400   8.249E-01
   27.500   8.123E-01
   27.600   8.000E-01
   27.700   7.880E-01
   27.800   7.763E-01
   27.900   7.649E-01
   28.000   7.538E-01
   28.100   7.430E-01
   28.200   7.324E-01
   28.300   7.220E-01
   28.400   7.120E-01
   28.500   7.021E-01
   28.600   6.925E-01
   28.700   6.831E-01
   28.800   6.739E-01
   28.900   6.650E-01
   29.000   6.562E-01
   29.100   6.476E-01
   29.200   6.393E-01
   29.300   6.311E-01
   29.400   6.230E-01
   29.500   6.152E-01
   29.600   6.075E-01
   29.700   6.000E-01
   29.800   5.926E-01
   29.900   5.854E-01
   30.000   5.783E-01
 
 Z=  36 A=  90  D1M-QRPA
   E[MeV]   fQRPA[mb/MeV]
    0.100   6.563E-05
    0.200   2.626E-04
    0.300   5.913E-04
    0.400   1.052E-03
    0.500   1.646E-03
    0.600   2.373E-03
    0.700   3.236E-03
    0.800   4.235E-03
    0.900   5.372E-03
    1.000   6.648E-03
    1.100   8.067E-03
    1.200   9.629E-03
    1.300   1.134E-02
    1.400   1.320E-02
    1.500   1.521E-02
    1.600   1.737E-02
    1.700   1.970E-02
    1.800   2.219E-02
    1.900   2.484E-02
    2.000   2.767E-02
    2.100   3.068E-02
    2.200   3.387E-02
    2.300   3.724E-02
    2.400   4.082E-02
    2.500   4.459E-02
    2.600   4.857E-02
    2.700   5.277E-02
    2.800   5.719E-02
    2.900   6.184E-02
    3.000   6.674E-02
    3.100   7.189E-02
    3.200   7.730E-02
    3.300   8.299E-02
    3.400   8.896E-02
    3.500   9.523E-02
    3.600   1.018E-01
    3.700   1.087E-01
    3.800   1.160E-01
    3.900   1.236E-01
    4.000   1.315E-01
    4.100   1.399E-01
    4.200   1.486E-01
    4.300   1.578E-01
    4.400   1.674E-01
    4.500   1.774E-01
    4.600   1.879E-01
    4.700   1.989E-01
    4.800   2.104E-01
    4.900   2.224E-01
    5.000   2.349E-01
    5.100   2.480E-01
    5.200   2.616E-01
    5.300   2.758E-01
    5.400   2.905E-01
    5.500   3.059E-01
    5.600   3.218E-01
    5.700   3.382E-01
    5.800   3.553E-01
    5.900   3.729E-01
    6.000   3.911E-01
    6.100   4.099E-01
    6.200   4.293E-01
    6.300   4.492E-01
    6.400   4.698E-01
    6.500   4.909E-01
    6.600   5.127E-01
    6.700   5.351E-01
    6.800   5.582E-01
    6.900   5.819E-01
    7.000   6.063E-01
    7.100   6.315E-01
    7.200   6.574E-01
    7.300   6.841E-01
    7.400   7.116E-01
    7.500   7.400E-01
    7.600   7.693E-01
    7.700   7.995E-01
    7.800   8.306E-01
    7.900   8.628E-01
    8.000   8.959E-01
    8.100   9.300E-01
    8.200   9.652E-01
    8.300   1.002E+00
    8.400   1.039E+00
    8.500   1.077E+00
    8.600   1.117E+00
    8.700   1.158E+00
    8.800   1.200E+00
    8.900   1.243E+00
    9.000   1.288E+00
    9.100   1.334E+00
    9.200   1.381E+00
    9.300   1.430E+00
    9.400   1.480E+00
    9.500   1.532E+00
    9.600   1.586E+00
    9.700   1.641E+00
    9.800   1.698E+00
    9.900   1.757E+00
   10.000   1.819E+00
   10.100   1.882E+00
   10.200   1.948E+00
   10.300   2.016E+00
   10.400   2.087E+00
   10.500   2.161E+00
   10.600   2.237E+00
   10.700   2.316E+00
   10.800   2.399E+00
   10.900   2.484E+00
   11.000   2.574E+00
   11.100   2.667E+00
   11.200   2.763E+00
   11.300   2.864E+00
   11.400   2.970E+00
   11.500   3.079E+00
   11.600   3.194E+00
   11.700   3.314E+00
   11.800   3.439E+00
   11.900   3.569E+00
   12.000   3.705E+00
   12.100   3.847E+00
   12.200   3.995E+00
   12.300   4.148E+00
   12.400   4.308E+00
   12.500   4.474E+00
   12.600   4.646E+00
   12.700   4.824E+00
   12.800   5.006E+00
   12.900   5.194E+00
   13.000   5.387E+00
   13.100   5.583E+00
   13.200   5.781E+00
   13.300   5.982E+00
   13.400   6.184E+00
   13.500   6.386E+00
   13.600   6.586E+00
   13.700   6.784E+00
   13.800   6.978E+00
   13.900   7.167E+00
   14.000   7.350E+00
   14.100   7.526E+00
   14.200   7.694E+00
   14.300   7.854E+00
   14.400   8.004E+00
   14.500   8.145E+00
   14.600   8.276E+00
   14.700   8.397E+00
   14.800   8.507E+00
   14.900   8.608E+00
   15.000   8.699E+00
   15.100   8.780E+00
   15.200   8.852E+00
   15.300   8.914E+00
   15.400   8.967E+00
   15.500   9.011E+00
   15.600   9.045E+00
   15.700   9.071E+00
   15.800   9.087E+00
   15.900   9.094E+00
   16.000   9.091E+00
   16.100   9.078E+00
   16.200   9.055E+00
   16.300   9.022E+00
   16.400   8.978E+00
   16.500   8.923E+00
   16.600   8.857E+00
   16.700   8.779E+00
   16.800   8.691E+00
   16.900   8.592E+00
   17.000   8.483E+00
   17.100   8.364E+00
   17.200   8.236E+00
   17.300   8.099E+00
   17.400   7.956E+00
   17.500   7.805E+00
   17.600   7.649E+00
   17.700   7.489E+00
   17.800   7.326E+00
   17.900   7.160E+00
   18.000   6.993E+00
   18.100   6.825E+00
   18.200   6.658E+00
   18.300   6.492E+00
   18.400   6.328E+00
   18.500   6.166E+00
   18.600   6.007E+00
   18.700   5.852E+00
   18.800   5.701E+00
   18.900   5.553E+00
   19.000   5.410E+00
   19.100   5.271E+00
   19.200   5.137E+00
   19.300   5.007E+00
   19.400   4.882E+00
   19.500   4.761E+00
   19.600   4.645E+00
   19.700   4.533E+00
   19.800   4.425E+00
   19.900   4.322E+00
   20.000   4.222E+00
   20.100   4.126E+00
   20.200   4.034E+00
   20.300   3.946E+00
   20.400   3.861E+00
   20.500   3.779E+00
   20.600   3.700E+00
   20.700   3.623E+00
   20.800   3.549E+00
   20.900   3.477E+00
   21.000   3.407E+00
   21.100   3.339E+00
   21.200   3.272E+00
   21.300   3.207E+00
   21.400   3.143E+00
   21.500   3.080E+00
   21.600   3.019E+00
   21.700   2.958E+00
   21.800   2.898E+00
   21.900   2.839E+00
   22.000   2.780E+00
   22.100   2.723E+00
   22.200   2.666E+00
   22.300   2.610E+00
   22.400   2.556E+00
   22.500   2.502E+00
   22.600   2.449E+00
   22.700   2.397E+00
   22.800   2.346E+00
   22.900   2.296E+00
   23.000   2.247E+00
   23.100   2.199E+00
   23.200   2.152E+00
   23.300   2.106E+00
   23.400   2.061E+00
   23.500   2.017E+00
   23.600   1.975E+00
   23.700   1.933E+00
   23.800   1.892E+00
   23.900   1.852E+00
   24.000   1.812E+00
   24.100   1.774E+00
   24.200   1.737E+00
   24.300   1.700E+00
   24.400   1.664E+00
   24.500   1.629E+00
   24.600   1.594E+00
   24.700   1.560E+00
   24.800   1.527E+00
   24.900   1.495E+00
   25.000   1.464E+00
   25.100   1.433E+00
   25.200   1.403E+00
   25.300   1.373E+00
   25.400   1.344E+00
   25.500   1.316E+00
   25.600   1.289E+00
   25.700   1.263E+00
   25.800   1.237E+00
   25.900   1.212E+00
   26.000   1.187E+00
   26.100   1.164E+00
   26.200   1.141E+00
   26.300   1.118E+00
   26.400   1.096E+00
   26.500   1.075E+00
   26.600   1.055E+00
   26.700   1.035E+00
   26.800   1.016E+00
   26.900   9.974E-01
   27.000   9.793E-01
   27.100   9.618E-01
   27.200   9.448E-01
   27.300   9.283E-01
   27.400   9.123E-01
   27.500   8.968E-01
   27.600   8.817E-01
   27.700   8.671E-01
   27.800   8.529E-01
   27.900   8.390E-01
   28.000   8.256E-01
   28.100   8.125E-01
   28.200   7.998E-01
   28.300   7.875E-01
   28.400   7.754E-01
   28.500   7.637E-01
   28.600   7.523E-01
   28.700   7.412E-01
   28.800   7.304E-01
   28.900   7.199E-01
   29.000   7.096E-01
   29.100   6.995E-01
   29.200   6.898E-01
   29.300   6.802E-01
   29.400   6.709E-01
   29.500   6.618E-01
   29.600   6.529E-01
   29.700   6.442E-01
   29.800   6.358E-01
   29.900   6.275E-01
   30.000   6.194E-01
 
 Z=  36 A=  91  D1M-QRPA-Inter
 E[MeV]  fQRPA[mb/MeV]
    0.100   2.137E-04
    0.200   8.395E-04
    0.300   1.837E-03
    0.400   3.151E-03
    0.500   4.725E-03
    0.600   6.508E-03
    0.700   8.458E-03
    0.800   1.054E-02
    0.900   1.274E-02
    1.000   1.502E-02
    1.100   1.739E-02
    1.200   1.982E-02
    1.300   2.232E-02
    1.400   2.489E-02
    1.500   2.753E-02
    1.600   3.024E-02
    1.700   3.304E-02
    1.800   3.592E-02
    1.900   3.889E-02
    2.000   4.197E-02
    2.100   4.517E-02
    2.200   4.850E-02
    2.300   5.197E-02
    2.400   5.559E-02
    2.500   5.937E-02
    2.600   6.333E-02
    2.700   6.747E-02
    2.800   7.182E-02
    2.900   7.639E-02
    3.000   8.118E-02
    3.100   8.622E-02
    3.200   9.151E-02
    3.300   9.707E-02
    3.400   1.029E-01
    3.500   1.091E-01
    3.600   1.155E-01
    3.700   1.223E-01
    3.800   1.295E-01
    3.900   1.370E-01
    4.000   1.449E-01
    4.100   1.532E-01
    4.200   1.620E-01
    4.300   1.711E-01
    4.400   1.808E-01
    4.500   1.909E-01
    4.600   2.015E-01
    4.700   2.126E-01
    4.800   2.243E-01
    4.900   2.366E-01
    5.000   2.494E-01
    5.100   2.628E-01
    5.200   2.768E-01
    5.300   2.914E-01
    5.400   3.066E-01
    5.500   3.225E-01
    5.600   3.390E-01
    5.700   3.562E-01
    5.800   3.740E-01
    5.900   3.925E-01
    6.000   4.115E-01
    6.100   4.313E-01
    6.200   4.516E-01
    6.300   4.726E-01
    6.400   4.941E-01
    6.500   5.163E-01
    6.600   5.390E-01
    6.700   5.624E-01
    6.800   5.863E-01
    6.900   6.107E-01
    7.000   6.358E-01
    7.100   6.614E-01
    7.200   6.877E-01
    7.300   7.146E-01
    7.400   7.421E-01
    7.500   7.705E-01
    7.600   7.996E-01
    7.700   8.295E-01
    7.800   8.603E-01
    7.900   8.920E-01
    8.000   9.247E-01
    8.100   9.585E-01
    8.200   9.934E-01
    8.300   1.030E+00
    8.400   1.067E+00
    8.500   1.105E+00
    8.600   1.145E+00
    8.700   1.187E+00
    8.800   1.229E+00
    8.900   1.274E+00
    9.000   1.319E+00
    9.100   1.367E+00
    9.200   1.416E+00
    9.300   1.467E+00
    9.400   1.520E+00
    9.500   1.574E+00
    9.600   1.631E+00
    9.700   1.690E+00
    9.800   1.751E+00
    9.900   1.814E+00
   10.000   1.880E+00
   10.100   1.948E+00
   10.200   2.020E+00
   10.300   2.094E+00
   10.400   2.171E+00
   10.500   2.251E+00
   10.600   2.334E+00
   10.700   2.421E+00
   10.800   2.512E+00
   10.900   2.607E+00
   11.000   2.705E+00
   11.100   2.809E+00
   11.200   2.917E+00
   11.300   3.030E+00
   11.400   3.148E+00
   11.500   3.271E+00
   11.600   3.401E+00
   11.700   3.536E+00
   11.800   3.678E+00
   11.900   3.826E+00
   12.000   3.980E+00
   12.100   4.142E+00
   12.200   4.310E+00
   12.300   4.486E+00
   12.400   4.668E+00
   12.500   4.858E+00
   12.600   5.054E+00
   12.700   5.256E+00
   12.800   5.464E+00
   12.900   5.678E+00
   13.000   5.897E+00
   13.100   6.119E+00
   13.200   6.344E+00
   13.300   6.571E+00
   13.400   6.798E+00
   13.500   7.024E+00
   13.600   7.246E+00
   13.700   7.465E+00
   13.800   7.677E+00
   13.900   7.882E+00
   14.000   8.077E+00
   14.100   8.261E+00
   14.200   8.434E+00
   14.300   8.593E+00
   14.400   8.738E+00
   14.500   8.868E+00
   14.600   8.984E+00
   14.700   9.085E+00
   14.800   9.171E+00
   14.900   9.243E+00
   15.000   9.302E+00
   15.100   9.347E+00
   15.200   9.379E+00
   15.300   9.400E+00
   15.400   9.410E+00
   15.500   9.409E+00
   15.600   9.398E+00
   15.700   9.377E+00
   15.800   9.347E+00
   15.900   9.308E+00
   16.000   9.260E+00
   16.100   9.204E+00
   16.200   9.138E+00
   16.300   9.064E+00
   16.400   8.982E+00
   16.500   8.891E+00
   16.600   8.793E+00
   16.700   8.686E+00
   16.800   8.572E+00
   16.900   8.451E+00
   17.000   8.323E+00
   17.100   8.190E+00
   17.200   8.052E+00
   17.300   7.909E+00
   17.400   7.763E+00
   17.500   7.614E+00
   17.600   7.462E+00
   17.700   7.309E+00
   17.800   7.156E+00
   17.900   7.001E+00
   18.000   6.847E+00
   18.100   6.694E+00
   18.200   6.541E+00
   18.300   6.389E+00
   18.400   6.238E+00
   18.500   6.089E+00
   18.600   5.941E+00
   18.700   5.795E+00
   18.800   5.651E+00
   18.900   5.509E+00
   19.000   5.368E+00
   19.100   5.230E+00
   19.200   5.094E+00
   19.300   4.960E+00
   19.400   4.829E+00
   19.500   4.700E+00
   19.600   4.575E+00
   19.700   4.452E+00
   19.800   4.332E+00
   19.900   4.215E+00
   20.000   4.101E+00
   20.100   3.990E+00
   20.200   3.883E+00
   20.300   3.778E+00
   20.400   3.677E+00
   20.500   3.579E+00
   20.600   3.484E+00
   20.700   3.392E+00
   20.800   3.304E+00
   20.900   3.218E+00
   21.000   3.134E+00
   21.100   3.054E+00
   21.200   2.976E+00
   21.300   2.900E+00
   21.400   2.827E+00
   21.500   2.756E+00
   21.600   2.687E+00
   21.700   2.621E+00
   21.800   2.556E+00
   21.900   2.493E+00
   22.000   2.432E+00
   22.100   2.373E+00
   22.200   2.316E+00
   22.300   2.260E+00
   22.400   2.206E+00
   22.500   2.154E+00
   22.600   2.103E+00
   22.700   2.054E+00
   22.800   2.006E+00
   22.900   1.960E+00
   23.000   1.915E+00
   23.100   1.872E+00
   23.200   1.830E+00
   23.300   1.789E+00
   23.400   1.749E+00
   23.500   1.711E+00
   23.600   1.674E+00
   23.700   1.637E+00
   23.800   1.602E+00
   23.900   1.568E+00
   24.000   1.535E+00
   24.100   1.503E+00
   24.200   1.471E+00
   24.300   1.441E+00
   24.400   1.411E+00
   24.500   1.382E+00
   24.600   1.354E+00
   24.700   1.327E+00
   24.800   1.300E+00
   24.900   1.274E+00
   25.000   1.249E+00
   25.100   1.224E+00
   25.200   1.200E+00
   25.300   1.177E+00
   25.400   1.154E+00
   25.500   1.132E+00
   25.600   1.111E+00
   25.700   1.090E+00
   25.800   1.069E+00
   25.900   1.050E+00
   26.000   1.030E+00
   26.100   1.012E+00
   26.200   9.934E-01
   26.300   9.757E-01
   26.400   9.585E-01
   26.500   9.418E-01
   26.600   9.256E-01
   26.700   9.098E-01
   26.800   8.944E-01
   26.900   8.795E-01
   27.000   8.650E-01
   27.100   8.508E-01
   27.200   8.371E-01
   27.300   8.237E-01
   27.400   8.107E-01
   27.500   7.981E-01
   27.600   7.857E-01
   27.700   7.737E-01
   27.800   7.620E-01
   27.900   7.506E-01
   28.000   7.395E-01
   28.100   7.287E-01
   28.200   7.181E-01
   28.300   7.079E-01
   28.400   6.978E-01
   28.500   6.880E-01
   28.600   6.784E-01
   28.700   6.691E-01
   28.800   6.600E-01
   28.900   6.510E-01
   29.000   6.423E-01
   29.100   6.338E-01
   29.200   6.255E-01
   29.300   6.173E-01
   29.400   6.094E-01
   29.500   6.016E-01
   29.600   5.940E-01
   29.700   5.865E-01
   29.800   5.792E-01
   29.900   5.721E-01
   30.000   5.651E-01
 
 Z=  36 A=  92  D1M-QRPA
   E[MeV]   fQRPA[mb/MeV]
    0.100   6.912E-04
    0.200   2.666E-03
    0.300   5.668E-03
    0.400   9.372E-03
    0.500   1.347E-02
    0.600   1.773E-02
    0.700   2.196E-02
    0.800   2.607E-02
    0.900   3.000E-02
    1.000   3.372E-02
    1.100   3.722E-02
    1.200   4.053E-02
    1.300   4.366E-02
    1.400   4.665E-02
    1.500   4.952E-02
    1.600   5.230E-02
    1.700   5.504E-02
    1.800   5.775E-02
    1.900   6.048E-02
    2.000   6.324E-02
    2.100   6.607E-02
    2.200   6.900E-02
    2.300   7.203E-02
    2.400   7.520E-02
    2.500   7.852E-02
    2.600   8.202E-02
    2.700   8.571E-02
    2.800   8.961E-02
    2.900   9.373E-02
    3.000   9.809E-02
    3.100   1.027E-01
    3.200   1.076E-01
    3.300   1.128E-01
    3.400   1.183E-01
    3.500   1.241E-01
    3.600   1.302E-01
    3.700   1.367E-01
    3.800   1.436E-01
    3.900   1.509E-01
    4.000   1.586E-01
    4.100   1.667E-01
    4.200   1.753E-01
    4.300   1.844E-01
    4.400   1.939E-01
    4.500   2.040E-01
    4.600   2.146E-01
    4.700   2.258E-01
    4.800   2.376E-01
    4.900   2.500E-01
    5.000   2.629E-01
    5.100   2.766E-01
    5.200   2.909E-01
    5.300   3.058E-01
    5.400   3.215E-01
    5.500   3.378E-01
    5.600   3.549E-01
    5.700   3.726E-01
    5.800   3.911E-01
    5.900   4.103E-01
    6.000   4.302E-01
    6.100   4.507E-01
    6.200   4.720E-01
    6.300   4.939E-01
    6.400   5.163E-01
    6.500   5.394E-01
    6.600   5.630E-01
    6.700   5.871E-01
    6.800   6.117E-01
    6.900   6.367E-01
    7.000   6.622E-01
    7.100   6.882E-01
    7.200   7.146E-01
    7.300   7.415E-01
    7.400   7.689E-01
    7.500   7.969E-01
    7.600   8.255E-01
    7.700   8.549E-01
    7.800   8.851E-01
    7.900   9.161E-01
    8.000   9.482E-01
    8.100   9.814E-01
    8.200   1.016E+00
    8.300   1.051E+00
    8.400   1.088E+00
    8.500   1.127E+00
    8.600   1.167E+00
    8.700   1.208E+00
    8.800   1.251E+00
    8.900   1.296E+00
    9.000   1.343E+00
    9.100   1.391E+00
    9.200   1.442E+00
    9.300   1.495E+00
    9.400   1.550E+00
    9.500   1.607E+00
    9.600   1.666E+00
    9.700   1.728E+00
    9.800   1.793E+00
    9.900   1.860E+00
   10.000   1.930E+00
   10.100   2.004E+00
   10.200   2.080E+00
   10.300   2.159E+00
   10.400   2.242E+00
   10.500   2.329E+00
   10.600   2.420E+00
   10.700   2.514E+00
   10.800   2.613E+00
   10.900   2.717E+00
   11.000   2.825E+00
   11.100   2.939E+00
   11.200   3.058E+00
   11.300   3.183E+00
   11.400   3.314E+00
   11.500   3.452E+00
   11.600   3.597E+00
   11.700   3.748E+00
   11.800   3.907E+00
   11.900   4.074E+00
   12.000   4.248E+00
   12.100   4.430E+00
   12.200   4.620E+00
   12.300   4.819E+00
   12.400   5.025E+00
   12.500   5.239E+00
   12.600   5.461E+00
   12.700   5.689E+00
   12.800   5.925E+00
   12.900   6.166E+00
   13.000   6.412E+00
   13.100   6.663E+00
   13.200   6.916E+00
   13.300   7.170E+00
   13.400   7.423E+00
   13.500   7.674E+00
   13.600   7.920E+00
   13.700   8.160E+00
   13.800   8.391E+00
   13.900   8.611E+00
   14.000   8.817E+00
   14.100   9.009E+00
   14.200   9.183E+00
   14.300   9.339E+00
   14.400   9.476E+00
   14.500   9.592E+00
   14.600   9.689E+00
   14.700   9.765E+00
   14.800   9.822E+00
   14.900   9.860E+00
   15.000   9.880E+00
   15.100   9.884E+00
   15.200   9.872E+00
   15.300   9.847E+00
   15.400   9.809E+00
   15.500   9.759E+00
   15.600   9.699E+00
   15.700   9.629E+00
   15.800   9.551E+00
   15.900   9.464E+00
   16.000   9.370E+00
   16.100   9.269E+00
   16.200   9.161E+00
   16.300   9.047E+00
   16.400   8.927E+00
   16.500   8.802E+00
   16.600   8.672E+00
   16.700   8.537E+00
   16.800   8.398E+00
   16.900   8.257E+00
   17.000   8.113E+00
   17.100   7.967E+00
   17.200   7.820E+00
   17.300   7.672E+00
   17.400   7.525E+00
   17.500   7.378E+00
   17.600   7.231E+00
   17.700   7.087E+00
   17.800   6.943E+00
   17.900   6.801E+00
   18.000   6.661E+00
   18.100   6.521E+00
   18.200   6.383E+00
   18.300   6.246E+00
   18.400   6.110E+00
   18.500   5.974E+00
   18.600   5.838E+00
   18.700   5.702E+00
   18.800   5.565E+00
   18.900   5.429E+00
   19.000   5.292E+00
   19.100   5.155E+00
   19.200   5.018E+00
   19.300   4.881E+00
   19.400   4.745E+00
   19.500   4.610E+00
   19.600   4.476E+00
   19.700   4.343E+00
   19.800   4.212E+00
   19.900   4.083E+00
   20.000   3.956E+00
   20.100   3.833E+00
   20.200   3.712E+00
   20.300   3.594E+00
   20.400   3.479E+00
   20.500   3.368E+00
   20.600   3.260E+00
   20.700   3.156E+00
   20.800   3.055E+00
   20.900   2.958E+00
   21.000   2.864E+00
   21.100   2.774E+00
   21.200   2.688E+00
   21.300   2.605E+00
   21.400   2.526E+00
   21.500   2.450E+00
   21.600   2.376E+00
   21.700   2.306E+00
   21.800   2.239E+00
   21.900   2.175E+00
   22.000   2.114E+00
   22.100   2.055E+00
   22.200   1.998E+00
   22.300   1.944E+00
   22.400   1.892E+00
   22.500   1.842E+00
   22.600   1.795E+00
   22.700   1.749E+00
   22.800   1.705E+00
   22.900   1.663E+00
   23.000   1.622E+00
   23.100   1.583E+00
   23.200   1.546E+00
   23.300   1.510E+00
   23.400   1.475E+00
   23.500   1.441E+00
   23.600   1.409E+00
   23.700   1.378E+00
   23.800   1.348E+00
   23.900   1.319E+00
   24.000   1.291E+00
   24.100   1.264E+00
   24.200   1.238E+00
   24.300   1.213E+00
   24.400   1.189E+00
   24.500   1.166E+00
   24.600   1.143E+00
   24.700   1.121E+00
   24.800   1.099E+00
   24.900   1.079E+00
   25.000   1.059E+00
   25.100   1.039E+00
   25.200   1.021E+00
   25.300   1.002E+00
   25.400   9.845E-01
   25.500   9.673E-01
   25.600   9.506E-01
   25.700   9.343E-01
   25.800   9.185E-01
   25.900   9.032E-01
   26.000   8.883E-01
   26.100   8.737E-01
   26.200   8.596E-01
   26.300   8.458E-01
   26.400   8.324E-01
   26.500   8.194E-01
   26.600   8.067E-01
   26.700   7.943E-01
   26.800   7.822E-01
   26.900   7.704E-01
   27.000   7.589E-01
   27.100   7.477E-01
   27.200   7.368E-01
   27.300   7.261E-01
   27.400   7.157E-01
   27.500   7.055E-01
   27.600   6.956E-01
   27.700   6.859E-01
   27.800   6.764E-01
   27.900   6.671E-01
   28.000   6.581E-01
   28.100   6.492E-01
   28.200   6.406E-01
   28.300   6.321E-01
   28.400   6.238E-01
   28.500   6.157E-01
   28.600   6.077E-01
   28.700   6.000E-01
   28.800   5.924E-01
   28.900   5.849E-01
   29.000   5.776E-01
   29.100   5.705E-01
   29.200   5.635E-01
   29.300   5.566E-01
   29.400   5.499E-01
   29.500   5.433E-01
   29.600   5.368E-01
   29.700   5.305E-01
   29.800   5.242E-01
   29.900   5.181E-01
   30.000   5.122E-01
 
 Z=  36 A=  93  D1M-QRPA-Inter
 E[MeV]  fQRPA[mb/MeV]
    0.100   3.668E-04
    0.200   1.439E-03
    0.300   3.140E-03
    0.400   5.369E-03
    0.500   8.017E-03
    0.600   1.099E-02
    0.700   1.420E-02
    0.800   1.759E-02
    0.900   2.110E-02
    1.000   2.470E-02
    1.100   2.836E-02
    1.200   3.206E-02
    1.300   3.580E-02
    1.400   3.956E-02
    1.500   4.335E-02
    1.600   4.719E-02
    1.700   5.106E-02
    1.800   5.499E-02
    1.900   5.899E-02
    2.000   6.306E-02
    2.100   6.724E-02
    2.200   7.153E-02
    2.300   7.595E-02
    2.400   8.051E-02
    2.500   8.524E-02
    2.600   9.014E-02
    2.700   9.524E-02
    2.800   1.006E-01
    2.900   1.061E-01
    3.000   1.119E-01
    3.100   1.179E-01
    3.200   1.242E-01
    3.300   1.308E-01
    3.400   1.378E-01
    3.500   1.450E-01
    3.600   1.526E-01
    3.700   1.606E-01
    3.800   1.689E-01
    3.900   1.776E-01
    4.000   1.868E-01
    4.100   1.964E-01
    4.200   2.064E-01
    4.300   2.169E-01
    4.400   2.280E-01
    4.500   2.395E-01
    4.600   2.516E-01
    4.700   2.642E-01
    4.800   2.774E-01
    4.900   2.912E-01
    5.000   3.056E-01
    5.100   3.206E-01
    5.200   3.363E-01
    5.300   3.527E-01
    5.400   3.697E-01
    5.500   3.875E-01
    5.600   4.059E-01
    5.700   4.251E-01
    5.800   4.450E-01
    5.900   4.656E-01
    6.000   4.870E-01
    6.100   5.091E-01
    6.200   5.319E-01
    6.300   5.555E-01
    6.400   5.798E-01
    6.500   6.048E-01
    6.600   6.305E-01
    6.700   6.569E-01
    6.800   6.840E-01
    6.900   7.117E-01
    7.000   7.401E-01
    7.100   7.692E-01
    7.200   7.990E-01
    7.300   8.295E-01
    7.400   8.607E-01
    7.500   8.928E-01
    7.600   9.256E-01
    7.700   9.594E-01
    7.800   9.940E-01
    7.900   1.030E+00
    8.000   1.066E+00
    8.100   1.104E+00
    8.200   1.143E+00
    8.300   1.184E+00
    8.400   1.226E+00
    8.500   1.269E+00
    8.600   1.313E+00
    8.700   1.360E+00
    8.800   1.408E+00
    8.900   1.457E+00
    9.000   1.509E+00
    9.100   1.562E+00
    9.200   1.617E+00
    9.300   1.675E+00
    9.400   1.734E+00
    9.500   1.796E+00
    9.600   1.860E+00
    9.700   1.927E+00
    9.800   1.996E+00
    9.900   2.068E+00
   10.000   2.143E+00
   10.100   2.221E+00
   10.200   2.302E+00
   10.300   2.386E+00
   10.400   2.474E+00
   10.500   2.565E+00
   10.600   2.660E+00
   10.700   2.758E+00
   10.800   2.861E+00
   10.900   2.968E+00
   11.000   3.080E+00
   11.100   3.196E+00
   11.200   3.317E+00
   11.300   3.443E+00
   11.400   3.574E+00
   11.500   3.711E+00
   11.600   3.854E+00
   11.700   4.002E+00
   11.800   4.156E+00
   11.900   4.317E+00
   12.000   4.483E+00
   12.100   4.656E+00
   12.200   4.834E+00
   12.300   5.019E+00
   12.400   5.210E+00
   12.500   5.406E+00
   12.600   5.609E+00
   12.700   5.816E+00
   12.800   6.028E+00
   12.900   6.244E+00
   13.000   6.464E+00
   13.100   6.686E+00
   13.200   6.911E+00
   13.300   7.136E+00
   13.400   7.361E+00
   13.500   7.585E+00
   13.600   7.805E+00
   13.700   8.022E+00
   13.800   8.232E+00
   13.900   8.435E+00
   14.000   8.630E+00
   14.100   8.814E+00
   14.200   8.987E+00
   14.300   9.148E+00
   14.400   9.295E+00
   14.500   9.429E+00
   14.600   9.547E+00
   14.700   9.651E+00
   14.800   9.739E+00
   14.900   9.813E+00
   15.000   9.872E+00
   15.100   9.917E+00
   15.200   9.949E+00
   15.300   9.967E+00
   15.400   9.972E+00
   15.500   9.966E+00
   15.600   9.948E+00
   15.700   9.920E+00
   15.800   9.881E+00
   15.900   9.832E+00
   16.000   9.774E+00
   16.100   9.707E+00
   16.200   9.632E+00
   16.300   9.548E+00
   16.400   9.456E+00
   16.500   9.357E+00
   16.600   9.251E+00
   16.700   9.139E+00
   16.800   9.021E+00
   16.900   8.898E+00
   17.000   8.769E+00
   17.100   8.637E+00
   17.200   8.501E+00
   17.300   8.362E+00
   17.400   8.220E+00
   17.500   8.076E+00
   17.600   7.931E+00
   17.700   7.785E+00
   17.800   7.637E+00
   17.900   7.490E+00
   18.000   7.342E+00
   18.100   7.193E+00
   18.200   7.045E+00
   18.300   6.897E+00
   18.400   6.749E+00
   18.500   6.601E+00
   18.600   6.453E+00
   18.700   6.306E+00
   18.800   6.159E+00
   18.900   6.012E+00
   19.000   5.867E+00
   19.100   5.722E+00
   19.200   5.578E+00
   19.300   5.435E+00
   19.400   5.294E+00
   19.500   5.154E+00
   19.600   5.017E+00
   19.700   4.882E+00
   19.800   4.749E+00
   19.900   4.618E+00
   20.000   4.490E+00
   20.100   4.366E+00
   20.200   4.244E+00
   20.300   4.125E+00
   20.400   4.010E+00
   20.500   3.898E+00
   20.600   3.789E+00
   20.700   3.684E+00
   20.800   3.581E+00
   20.900   3.483E+00
   21.000   3.387E+00
   21.100   3.295E+00
   21.200   3.206E+00
   21.300   3.120E+00
   21.400   3.038E+00
   21.500   2.958E+00
   21.600   2.881E+00
   21.700   2.807E+00
   21.800   2.736E+00
   21.900   2.667E+00
   22.000   2.601E+00
   22.100   2.537E+00
   22.200   2.475E+00
   22.300   2.416E+00
   22.400   2.359E+00
   22.500   2.304E+00
   22.600   2.251E+00
   22.700   2.200E+00
   22.800   2.150E+00
   22.900   2.102E+00
   23.000   2.056E+00
   23.100   2.012E+00
   23.200   1.969E+00
   23.300   1.927E+00
   23.400   1.887E+00
   23.500   1.848E+00
   23.600   1.811E+00
   23.700   1.774E+00
   23.800   1.739E+00
   23.900   1.705E+00
   24.000   1.672E+00
   24.100   1.640E+00
   24.200   1.609E+00
   24.300   1.579E+00
   24.400   1.550E+00
   24.500   1.521E+00
   24.600   1.494E+00
   24.700   1.467E+00
   24.800   1.441E+00
   24.900   1.416E+00
   25.000   1.391E+00
   25.100   1.367E+00
   25.200   1.344E+00
   25.300   1.322E+00
   25.400   1.300E+00
   25.500   1.278E+00
   25.600   1.258E+00
   25.700   1.237E+00
   25.800   1.218E+00
   25.900   1.199E+00
   26.000   1.180E+00
   26.100   1.162E+00
   26.200   1.144E+00
   26.300   1.126E+00
   26.400   1.109E+00
   26.500   1.093E+00
   26.600   1.077E+00
   26.700   1.061E+00
   26.800   1.046E+00
   26.900   1.031E+00
   27.000   1.016E+00
   27.100   1.002E+00
   27.200   9.877E-01
   27.300   9.740E-01
   27.400   9.607E-01
   27.500   9.476E-01
   27.600   9.348E-01
   27.700   9.223E-01
   27.800   9.100E-01
   27.900   8.980E-01
   28.000   8.863E-01
   28.100   8.748E-01
   28.200   8.636E-01
   28.300   8.526E-01
   28.400   8.418E-01
   28.500   8.313E-01
   28.600   8.209E-01
   28.700   8.108E-01
   28.800   8.008E-01
   28.900   7.911E-01
   29.000   7.815E-01
   29.100   7.722E-01
   29.200   7.630E-01
   29.300   7.540E-01
   29.400   7.452E-01
   29.500   7.365E-01
   29.600   7.280E-01
   29.700   7.197E-01
   29.800   7.115E-01
   29.900   7.034E-01
   30.000   6.955E-01
 
 Z=  36 A=  94  D1M-QRPA
   E[MeV]   fQRPA[mb/MeV]
    0.100   1.888E-04
    0.200   7.531E-04
    0.300   1.687E-03
    0.400   2.983E-03
    0.500   4.628E-03
    0.600   6.607E-03
    0.700   8.906E-03
    0.800   1.151E-02
    0.900   1.439E-02
    1.000   1.755E-02
    1.100   2.095E-02
    1.200   2.460E-02
    1.300   2.846E-02
    1.400   3.254E-02
    1.500   3.682E-02
    1.600   4.129E-02
    1.700   4.595E-02
    1.800   5.078E-02
    1.900   5.580E-02
    2.000   6.100E-02
    2.100   6.637E-02
    2.200   7.193E-02
    2.300   7.768E-02
    2.400   8.361E-02
    2.500   8.975E-02
    2.600   9.610E-02
    2.700   1.027E-01
    2.800   1.094E-01
    2.900   1.165E-01
    3.000   1.238E-01
    3.100   1.313E-01
    3.200   1.391E-01
    3.300   1.472E-01
    3.400   1.556E-01
    3.500   1.644E-01
    3.600   1.734E-01
    3.700   1.829E-01
    3.800   1.926E-01
    3.900   2.028E-01
    4.000   2.134E-01
    4.100   2.243E-01
    4.200   2.357E-01
    4.300   2.476E-01
    4.400   2.599E-01
    4.500   2.727E-01
    4.600   2.860E-01
    4.700   2.998E-01
    4.800   3.141E-01
    4.900   3.290E-01
    5.000   3.445E-01
    5.100   3.605E-01
    5.200   3.772E-01
    5.300   3.945E-01
    5.400   4.124E-01
    5.500   4.310E-01
    5.600   4.503E-01
    5.700   4.703E-01
    5.800   4.910E-01
    5.900   5.125E-01
    6.000   5.347E-01
    6.100   5.577E-01
    6.200   5.815E-01
    6.300   6.061E-01
    6.400   6.315E-01
    6.500   6.578E-01
    6.600   6.849E-01
    6.700   7.129E-01
    6.800   7.418E-01
    6.900   7.716E-01
    7.000   8.023E-01
    7.100   8.340E-01
    7.200   8.666E-01
    7.300   9.001E-01
    7.400   9.347E-01
    7.500   9.702E-01
    7.600   1.007E+00
    7.700   1.044E+00
    7.800   1.083E+00
    7.900   1.123E+00
    8.000   1.164E+00
    8.100   1.206E+00
    8.200   1.249E+00
    8.300   1.293E+00
    8.400   1.339E+00
    8.500   1.386E+00
    8.600   1.435E+00
    8.700   1.485E+00
    8.800   1.536E+00
    8.900   1.589E+00
    9.000   1.644E+00
    9.100   1.701E+00
    9.200   1.759E+00
    9.300   1.820E+00
    9.400   1.883E+00
    9.500   1.948E+00
    9.600   2.015E+00
    9.700   2.084E+00
    9.800   2.156E+00
    9.900   2.231E+00
   10.000   2.308E+00
   10.100   2.388E+00
   10.200   2.472E+00
   10.300   2.558E+00
   10.400   2.647E+00
   10.500   2.740E+00
   10.600   2.836E+00
   10.700   2.936E+00
   10.800   3.039E+00
   10.900   3.146E+00
   11.000   3.256E+00
   11.100   3.371E+00
   11.200   3.490E+00
   11.300   3.612E+00
   11.400   3.739E+00
   11.500   3.870E+00
   11.600   4.006E+00
   11.700   4.145E+00
   11.800   4.289E+00
   11.900   4.437E+00
   12.000   4.589E+00
   12.100   4.746E+00
   12.200   4.906E+00
   12.300   5.071E+00
   12.400   5.239E+00
   12.500   5.412E+00
   12.600   5.587E+00
   12.700   5.766E+00
   12.800   5.949E+00
   12.900   6.133E+00
   13.000   6.320E+00
   13.100   6.509E+00
   13.200   6.699E+00
   13.300   6.890E+00
   13.400   7.081E+00
   13.500   7.271E+00
   13.600   7.461E+00
   13.700   7.649E+00
   13.800   7.834E+00
   13.900   8.015E+00
   14.000   8.193E+00
   14.100   8.365E+00
   14.200   8.532E+00
   14.300   8.692E+00
   14.400   8.845E+00
   14.500   8.989E+00
   14.600   9.125E+00
   14.700   9.251E+00
   14.800   9.368E+00
   14.900   9.474E+00
   15.000   9.569E+00
   15.100   9.652E+00
   15.200   9.725E+00
   15.300   9.785E+00
   15.400   9.834E+00
   15.500   9.872E+00
   15.600   9.898E+00
   15.700   9.912E+00
   15.800   9.916E+00
   15.900   9.908E+00
   16.000   9.890E+00
   16.100   9.861E+00
   16.200   9.822E+00
   16.300   9.774E+00
   16.400   9.716E+00
   16.500   9.649E+00
   16.600   9.574E+00
   16.700   9.490E+00
   16.800   9.399E+00
   16.900   9.300E+00
   17.000   9.195E+00
   17.100   9.082E+00
   17.200   8.964E+00
   17.300   8.840E+00
   17.400   8.710E+00
   17.500   8.576E+00
   17.600   8.437E+00
   17.700   8.295E+00
   17.800   8.149E+00
   17.900   8.000E+00
   18.000   7.849E+00
   18.100   7.696E+00
   18.200   7.542E+00
   18.300   7.387E+00
   18.400   7.231E+00
   18.500   7.075E+00
   18.600   6.920E+00
   18.700   6.765E+00
   18.800   6.611E+00
   18.900   6.459E+00
   19.000   6.308E+00
   19.100   6.160E+00
   19.200   6.014E+00
   19.300   5.870E+00
   19.400   5.729E+00
   19.500   5.590E+00
   19.600   5.455E+00
   19.700   5.322E+00
   19.800   5.193E+00
   19.900   5.067E+00
   20.000   4.944E+00
   20.100   4.824E+00
   20.200   4.707E+00
   20.300   4.594E+00
   20.400   4.483E+00
   20.500   4.376E+00
   20.600   4.272E+00
   20.700   4.171E+00
   20.800   4.073E+00
   20.900   3.978E+00
   21.000   3.885E+00
   21.100   3.796E+00
   21.200   3.709E+00
   21.300   3.625E+00
   21.400   3.543E+00
   21.500   3.464E+00
   21.600   3.388E+00
   21.700   3.313E+00
   21.800   3.241E+00
   21.900   3.171E+00
   22.000   3.104E+00
   22.100   3.038E+00
   22.200   2.974E+00
   22.300   2.913E+00
   22.400   2.853E+00
   22.500   2.795E+00
   22.600   2.738E+00
   22.700   2.683E+00
   22.800   2.630E+00
   22.900   2.579E+00
   23.000   2.529E+00
   23.100   2.480E+00
   23.200   2.433E+00
   23.300   2.387E+00
   23.400   2.342E+00
   23.500   2.299E+00
   23.600   2.257E+00
   23.700   2.216E+00
   23.800   2.176E+00
   23.900   2.137E+00
   24.000   2.100E+00
   24.100   2.063E+00
   24.200   2.027E+00
   24.300   1.993E+00
   24.400   1.959E+00
   24.500   1.926E+00
   24.600   1.894E+00
   24.700   1.863E+00
   24.800   1.832E+00
   24.900   1.802E+00
   25.000   1.773E+00
   25.100   1.745E+00
   25.200   1.718E+00
   25.300   1.691E+00
   25.400   1.665E+00
   25.500   1.639E+00
   25.600   1.614E+00
   25.700   1.590E+00
   25.800   1.566E+00
   25.900   1.543E+00
   26.000   1.520E+00
   26.100   1.498E+00
   26.200   1.476E+00
   26.300   1.455E+00
   26.400   1.434E+00
   26.500   1.414E+00
   26.600   1.394E+00
   26.700   1.375E+00
   26.800   1.356E+00
   26.900   1.338E+00
   27.000   1.319E+00
   27.100   1.302E+00
   27.200   1.284E+00
   27.300   1.267E+00
   27.400   1.251E+00
   27.500   1.234E+00
   27.600   1.219E+00
   27.700   1.203E+00
   27.800   1.188E+00
   27.900   1.173E+00
   28.000   1.158E+00
   28.100   1.143E+00
   28.200   1.129E+00
   28.300   1.116E+00
   28.400   1.102E+00
   28.500   1.089E+00
   28.600   1.076E+00
   28.700   1.063E+00
   28.800   1.050E+00
   28.900   1.038E+00
   29.000   1.026E+00
   29.100   1.014E+00
   29.200   1.002E+00
   29.300   9.908E-01
   29.400   9.795E-01
   29.500   9.685E-01
   29.600   9.577E-01
   29.700   9.470E-01
   29.800   9.366E-01
   29.900   9.263E-01
   30.000   9.162E-01
 
 Z=  36 A=  95  D1M-QRPA-Inter
 E[MeV]  fQRPA[mb/MeV]
    0.100   1.449E-04
    0.200   5.789E-04
    0.300   1.300E-03
    0.400   2.304E-03
    0.500   3.587E-03
    0.600   5.143E-03
    0.700   6.966E-03
    0.800   9.048E-03
    0.900   1.138E-02
    1.000   1.396E-02
    1.100   1.678E-02
    1.200   1.984E-02
    1.300   2.312E-02
    1.400   2.662E-02
    1.500   3.033E-02
    1.600   3.426E-02
    1.700   3.840E-02
    1.800   4.275E-02
    1.900   4.731E-02
    2.000   5.208E-02
    2.100   5.706E-02
    2.200   6.225E-02
    2.300   6.766E-02
    2.400   7.328E-02
    2.500   7.914E-02
    2.600   8.523E-02
    2.700   9.157E-02
    2.800   9.815E-02
    2.900   1.050E-01
    3.000   1.121E-01
    3.100   1.195E-01
    3.200   1.272E-01
    3.300   1.352E-01
    3.400   1.435E-01
    3.500   1.521E-01
    3.600   1.611E-01
    3.700   1.705E-01
    3.800   1.802E-01
    3.900   1.903E-01
    4.000   2.008E-01
    4.100   2.117E-01
    4.200   2.230E-01
    4.300   2.348E-01
    4.400   2.471E-01
    4.500   2.599E-01
    4.600   2.731E-01
    4.700   2.869E-01
    4.800   3.012E-01
    4.900   3.161E-01
    5.000   3.315E-01
    5.100   3.475E-01
    5.200   3.642E-01
    5.300   3.815E-01
    5.400   3.994E-01
    5.500   4.180E-01
    5.600   4.373E-01
    5.700   4.573E-01
    5.800   4.781E-01
    5.900   4.996E-01
    6.000   5.219E-01
    6.100   5.450E-01
    6.200   5.689E-01
    6.300   5.936E-01
    6.400   6.192E-01
    6.500   6.456E-01
    6.600   6.729E-01
    6.700   7.012E-01
    6.800   7.303E-01
    6.900   7.604E-01
    7.000   7.913E-01
    7.100   8.233E-01
    7.200   8.562E-01
    7.300   8.900E-01
    7.400   9.249E-01
    7.500   9.607E-01
    7.600   9.976E-01
    7.700   1.036E+00
    7.800   1.074E+00
    7.900   1.115E+00
    8.000   1.156E+00
    8.100   1.198E+00
    8.200   1.242E+00
    8.300   1.287E+00
    8.400   1.333E+00
    8.500   1.380E+00
    8.600   1.429E+00
    8.700   1.480E+00
    8.800   1.532E+00
    8.900   1.586E+00
    9.000   1.642E+00
    9.100   1.699E+00
    9.200   1.759E+00
    9.300   1.821E+00
    9.400   1.885E+00
    9.500   1.951E+00
    9.600   2.020E+00
    9.700   2.092E+00
    9.800   2.166E+00
    9.900   2.244E+00
   10.000   2.324E+00
   10.100   2.407E+00
   10.200   2.494E+00
   10.300   2.584E+00
   10.400   2.678E+00
   10.500   2.775E+00
   10.600   2.876E+00
   10.700   2.981E+00
   10.800   3.090E+00
   10.900   3.203E+00
   11.000   3.320E+00
   11.100   3.441E+00
   11.200   3.567E+00
   11.300   3.696E+00
   11.400   3.831E+00
   11.500   3.969E+00
   11.600   4.112E+00
   11.700   4.259E+00
   11.800   4.410E+00
   11.900   4.565E+00
   12.000   4.725E+00
   12.100   4.888E+00
   12.200   5.055E+00
   12.300   5.225E+00
   12.400   5.398E+00
   12.500   5.575E+00
   12.600   5.754E+00
   12.700   5.935E+00
   12.800   6.118E+00
   12.900   6.302E+00
   13.000   6.487E+00
   13.100   6.672E+00
   13.200   6.857E+00
   13.300   7.042E+00
   13.400   7.224E+00
   13.500   7.405E+00
   13.600   7.583E+00
   13.700   7.757E+00
   13.800   7.927E+00
   13.900   8.092E+00
   14.000   8.251E+00
   14.100   8.404E+00
   14.200   8.549E+00
   14.300   8.687E+00
   14.400   8.816E+00
   14.500   8.937E+00
   14.600   9.047E+00
   14.700   9.148E+00
   14.800   9.238E+00
   14.900   9.317E+00
   15.000   9.386E+00
   15.100   9.443E+00
   15.200   9.489E+00
   15.300   9.524E+00
   15.400   9.548E+00
   15.500   9.561E+00
   15.600   9.563E+00
   15.700   9.554E+00
   15.800   9.535E+00
   15.900   9.506E+00
   16.000   9.467E+00
   16.100   9.418E+00
   16.200   9.361E+00
   16.300   9.295E+00
   16.400   9.221E+00
   16.500   9.139E+00
   16.600   9.049E+00
   16.700   8.952E+00
   16.800   8.848E+00
   16.900   8.737E+00
   17.000   8.621E+00
   17.100   8.499E+00
   17.200   8.371E+00
   17.300   8.239E+00
   17.400   8.102E+00
   17.500   7.961E+00
   17.600   7.817E+00
   17.700   7.670E+00
   17.800   7.520E+00
   17.900   7.368E+00
   18.000   7.215E+00
   18.100   7.061E+00
   18.200   6.906E+00
   18.300   6.750E+00
   18.400   6.596E+00
   18.500   6.442E+00
   18.600   6.289E+00
   18.700   6.137E+00
   18.800   5.988E+00
   18.900   5.840E+00
   19.000   5.695E+00
   19.100   5.552E+00
   19.200   5.412E+00
   19.300   5.275E+00
   19.400   5.142E+00
   19.500   5.011E+00
   19.600   4.883E+00
   19.700   4.759E+00
   19.800   4.638E+00
   19.900   4.521E+00
   20.000   4.407E+00
   20.100   4.296E+00
   20.200   4.188E+00
   20.300   4.084E+00
   20.400   3.982E+00
   20.500   3.884E+00
   20.600   3.789E+00
   20.700   3.697E+00
   20.800   3.608E+00
   20.900   3.522E+00
   21.000   3.438E+00
   21.100   3.358E+00
   21.200   3.279E+00
   21.300   3.204E+00
   21.400   3.130E+00
   21.500   3.059E+00
   21.600   2.991E+00
   21.700   2.924E+00
   21.800   2.860E+00
   21.900   2.797E+00
   22.000   2.737E+00
   22.100   2.678E+00
   22.200   2.622E+00
   22.300   2.567E+00
   22.400   2.514E+00
   22.500   2.462E+00
   22.600   2.412E+00
   22.700   2.363E+00
   22.800   2.316E+00
   22.900   2.271E+00
   23.000   2.226E+00
   23.100   2.183E+00
   23.200   2.142E+00
   23.300   2.101E+00
   23.400   2.062E+00
   23.500   2.024E+00
   23.600   1.987E+00
   23.700   1.950E+00
   23.800   1.915E+00
   23.900   1.881E+00
   24.000   1.848E+00
   24.100   1.816E+00
   24.200   1.784E+00
   24.300   1.754E+00
   24.400   1.724E+00
   24.500   1.695E+00
   24.600   1.667E+00
   24.700   1.639E+00
   24.800   1.613E+00
   24.900   1.586E+00
   25.000   1.561E+00
   25.100   1.536E+00
   25.200   1.512E+00
   25.300   1.488E+00
   25.400   1.465E+00
   25.500   1.443E+00
   25.600   1.421E+00
   25.700   1.400E+00
   25.800   1.379E+00
   25.900   1.358E+00
   26.000   1.339E+00
   26.100   1.319E+00
   26.200   1.300E+00
   26.300   1.282E+00
   26.400   1.263E+00
   26.500   1.246E+00
   26.600   1.228E+00
   26.700   1.211E+00
   26.800   1.195E+00
   26.900   1.178E+00
   27.000   1.163E+00
   27.100   1.147E+00
   27.200   1.132E+00
   27.300   1.117E+00
   27.400   1.102E+00
   27.500   1.088E+00
   27.600   1.074E+00
   27.700   1.060E+00
   27.800   1.047E+00
   27.900   1.034E+00
   28.000   1.021E+00
   28.100   1.008E+00
   28.200   9.959E-01
   28.300   9.837E-01
   28.400   9.718E-01
   28.500   9.601E-01
   28.600   9.487E-01
   28.700   9.374E-01
   28.800   9.264E-01
   28.900   9.156E-01
   29.000   9.050E-01
   29.100   8.946E-01
   29.200   8.843E-01
   29.300   8.743E-01
   29.400   8.644E-01
   29.500   8.547E-01
   29.600   8.452E-01
   29.700   8.359E-01
   29.800   8.267E-01
   29.900   8.177E-01
   30.000   8.088E-01
 
 Z=  36 A=  96  D1M-QRPA
   E[MeV]   fQRPA[mb/MeV]
    0.100   1.100E-04
    0.200   4.401E-04
    0.300   9.903E-04
    0.400   1.760E-03
    0.500   2.750E-03
    0.600   3.960E-03
    0.700   5.389E-03
    0.800   7.038E-03
    0.900   8.906E-03
    1.000   1.099E-02
    1.100   1.330E-02
    1.200   1.583E-02
    1.300   1.857E-02
    1.400   2.154E-02
    1.500   2.472E-02
    1.600   2.813E-02
    1.700   3.175E-02
    1.800   3.561E-02
    1.900   3.968E-02
    2.000   4.399E-02
    2.100   4.852E-02
    2.200   5.329E-02
    2.300   5.829E-02
    2.400   6.354E-02
    2.500   6.903E-02
    2.600   7.478E-02
    2.700   8.079E-02
    2.800   8.707E-02
    2.900   9.362E-02
    3.000   1.005E-01
    3.100   1.076E-01
    3.200   1.150E-01
    3.300   1.228E-01
    3.400   1.309E-01
    3.500   1.393E-01
    3.600   1.480E-01
    3.700   1.572E-01
    3.800   1.667E-01
    3.900   1.766E-01
    4.000   1.869E-01
    4.100   1.976E-01
    4.200   2.088E-01
    4.300   2.204E-01
    4.400   2.324E-01
    4.500   2.450E-01
    4.600   2.580E-01
    4.700   2.716E-01
    4.800   2.857E-01
    4.900   3.004E-01
    5.000   3.156E-01
    5.100   3.314E-01
    5.200   3.478E-01
    5.300   3.649E-01
    5.400   3.826E-01
    5.500   4.010E-01
    5.600   4.201E-01
    5.700   4.399E-01
    5.800   4.605E-01
    5.900   4.818E-01
    6.000   5.039E-01
    6.100   5.268E-01
    6.200   5.505E-01
    6.300   5.751E-01
    6.400   6.005E-01
    6.500   6.268E-01
    6.600   6.541E-01
    6.700   6.822E-01
    6.800   7.112E-01
    6.900   7.412E-01
    7.000   7.721E-01
    7.100   8.040E-01
    7.200   8.368E-01
    7.300   8.706E-01
    7.400   9.054E-01
    7.500   9.411E-01
    7.600   9.779E-01
    7.700   1.016E+00
    7.800   1.055E+00
    7.900   1.095E+00
    8.000   1.136E+00
    8.100   1.178E+00
    8.200   1.221E+00
    8.300   1.266E+00
    8.400   1.312E+00
    8.500   1.360E+00
    8.600   1.409E+00
    8.700   1.459E+00
    8.800   1.512E+00
    8.900   1.566E+00
    9.000   1.622E+00
    9.100   1.680E+00
    9.200   1.740E+00
    9.300   1.802E+00
    9.400   1.867E+00
    9.500   1.934E+00
    9.600   2.004E+00
    9.700   2.077E+00
    9.800   2.153E+00
    9.900   2.232E+00
   10.000   2.315E+00
   10.100   2.400E+00
   10.200   2.490E+00
   10.300   2.583E+00
   10.400   2.680E+00
   10.500   2.781E+00
   10.600   2.886E+00
   10.700   2.995E+00
   10.800   3.108E+00
   10.900   3.226E+00
   11.000   3.348E+00
   11.100   3.475E+00
   11.200   3.606E+00
   11.300   3.742E+00
   11.400   3.882E+00
   11.500   4.026E+00
   11.600   4.175E+00
   11.700   4.329E+00
   11.800   4.486E+00
   11.900   4.647E+00
   12.000   4.812E+00
   12.100   4.980E+00
   12.200   5.152E+00
   12.300   5.326E+00
   12.400   5.502E+00
   12.500   5.681E+00
   12.600   5.861E+00
   12.700   6.042E+00
   12.800   6.224E+00
   12.900   6.405E+00
   13.000   6.586E+00
   13.100   6.766E+00
   13.200   6.944E+00
   13.300   7.119E+00
   13.400   7.292E+00
   13.500   7.460E+00
   13.600   7.624E+00
   13.700   7.782E+00
   13.800   7.935E+00
   13.900   8.081E+00
   14.000   8.220E+00
   14.100   8.352E+00
   14.200   8.474E+00
   14.300   8.589E+00
   14.400   8.693E+00
   14.500   8.788E+00
   14.600   8.873E+00
   14.700   8.948E+00
   14.800   9.012E+00
   14.900   9.065E+00
   15.000   9.108E+00
   15.100   9.139E+00
   15.200   9.160E+00
   15.300   9.170E+00
   15.400   9.170E+00
   15.500   9.160E+00
   15.600   9.139E+00
   15.700   9.109E+00
   15.800   9.070E+00
   15.900   9.021E+00
   16.000   8.964E+00
   16.100   8.899E+00
   16.200   8.826E+00
   16.300   8.745E+00
   16.400   8.657E+00
   16.500   8.562E+00
   16.600   8.460E+00
   16.700   8.353E+00
   16.800   8.239E+00
   16.900   8.120E+00
   17.000   7.996E+00
   17.100   7.867E+00
   17.200   7.733E+00
   17.300   7.596E+00
   17.400   7.455E+00
   17.500   7.311E+00
   17.600   7.164E+00
   17.700   7.015E+00
   17.800   6.865E+00
   17.900   6.713E+00
   18.000   6.560E+00
   18.100   6.407E+00
   18.200   6.255E+00
   18.300   6.102E+00
   18.400   5.951E+00
   18.500   5.802E+00
   18.600   5.654E+00
   18.700   5.508E+00
   18.800   5.365E+00
   18.900   5.224E+00
   19.000   5.086E+00
   19.100   4.951E+00
   19.200   4.819E+00
   19.300   4.690E+00
   19.400   4.565E+00
   19.500   4.443E+00
   19.600   4.325E+00
   19.700   4.210E+00
   19.800   4.098E+00
   19.900   3.990E+00
   20.000   3.886E+00
   20.100   3.784E+00
   20.200   3.686E+00
   20.300   3.591E+00
   20.400   3.499E+00
   20.500   3.411E+00
   20.600   3.325E+00
   20.700   3.242E+00
   20.800   3.162E+00
   20.900   3.085E+00
   21.000   3.010E+00
   21.100   2.938E+00
   21.200   2.868E+00
   21.300   2.801E+00
   21.400   2.735E+00
   21.500   2.672E+00
   21.600   2.612E+00
   21.700   2.553E+00
   21.800   2.496E+00
   21.900   2.441E+00
   22.000   2.387E+00
   22.100   2.336E+00
   22.200   2.286E+00
   22.300   2.238E+00
   22.400   2.191E+00
   22.500   2.146E+00
   22.600   2.102E+00
   22.700   2.059E+00
   22.800   2.018E+00
   22.900   1.978E+00
   23.000   1.939E+00
   23.100   1.902E+00
   23.200   1.865E+00
   23.300   1.830E+00
   23.400   1.795E+00
   23.500   1.762E+00
   23.600   1.730E+00
   23.700   1.698E+00
   23.800   1.668E+00
   23.900   1.638E+00
   24.000   1.609E+00
   24.100   1.581E+00
   24.200   1.553E+00
   24.300   1.527E+00
   24.400   1.501E+00
   24.500   1.476E+00
   24.600   1.451E+00
   24.700   1.427E+00
   24.800   1.404E+00
   24.900   1.381E+00
   25.000   1.359E+00
   25.100   1.338E+00
   25.200   1.317E+00
   25.300   1.296E+00
   25.400   1.276E+00
   25.500   1.257E+00
   25.600   1.238E+00
   25.700   1.219E+00
   25.800   1.201E+00
   25.900   1.183E+00
   26.000   1.166E+00
   26.100   1.149E+00
   26.200   1.133E+00
   26.300   1.117E+00
   26.400   1.101E+00
   26.500   1.085E+00
   26.600   1.070E+00
   26.700   1.056E+00
   26.800   1.041E+00
   26.900   1.027E+00
   27.000   1.013E+00
   27.100   9.999E-01
   27.200   9.867E-01
   27.300   9.737E-01
   27.400   9.611E-01
   27.500   9.487E-01
   27.600   9.366E-01
   27.700   9.247E-01
   27.800   9.130E-01
   27.900   9.016E-01
   28.000   8.904E-01
   28.100   8.795E-01
   28.200   8.687E-01
   28.300   8.582E-01
   28.400   8.478E-01
   28.500   8.377E-01
   28.600   8.278E-01
   28.700   8.180E-01
   28.800   8.084E-01
   28.900   7.990E-01
   29.000   7.898E-01
   29.100   7.808E-01
   29.200   7.719E-01
   29.300   7.632E-01
   29.400   7.546E-01
   29.500   7.462E-01
   29.600   7.380E-01
   29.700   7.298E-01
   29.800   7.219E-01
   29.900   7.140E-01
   30.000   7.064E-01
 
 Z=  36 A=  97  D1M-QRPA-Inter
 E[MeV]  fQRPA[mb/MeV]
    0.100   1.472E-04
    0.200   5.887E-04
    0.300   1.324E-03
    0.400   2.352E-03
    0.500   3.672E-03
    0.600   5.281E-03
    0.700   7.177E-03
    0.800   9.357E-03
    0.900   1.182E-02
    1.000   1.455E-02
    1.100   1.756E-02
    1.200   2.082E-02
    1.300   2.435E-02
    1.400   2.811E-02
    1.500   3.212E-02
    1.600   3.635E-02
    1.700   4.080E-02
    1.800   4.546E-02
    1.900   5.030E-02
    2.000   5.534E-02
    2.100   6.055E-02
    2.200   6.592E-02
    2.300   7.146E-02
    2.400   7.716E-02
    2.500   8.301E-02
    2.600   8.901E-02
    2.700   9.517E-02
    2.800   1.015E-01
    2.900   1.080E-01
    3.000   1.146E-01
    3.100   1.215E-01
    3.200   1.285E-01
    3.300   1.358E-01
    3.400   1.433E-01
    3.500   1.511E-01
    3.600   1.591E-01
    3.700   1.674E-01
    3.800   1.760E-01
    3.900   1.849E-01
    4.000   1.942E-01
    4.100   2.039E-01
    4.200   2.139E-01
    4.300   2.243E-01
    4.400   2.352E-01
    4.500   2.465E-01
    4.600   2.583E-01
    4.700   2.706E-01
    4.800   2.834E-01
    4.900   2.968E-01
    5.000   3.107E-01
    5.100   3.251E-01
    5.200   3.402E-01
    5.300   3.559E-01
    5.400   3.723E-01
    5.500   3.893E-01
    5.600   4.070E-01
    5.700   4.255E-01
    5.800   4.446E-01
    5.900   4.645E-01
    6.000   4.852E-01
    6.100   5.067E-01
    6.200   5.290E-01
    6.300   5.521E-01
    6.400   5.761E-01
    6.500   6.009E-01
    6.600   6.266E-01
    6.700   6.532E-01
    6.800   6.806E-01
    6.900   7.090E-01
    7.000   7.382E-01
    7.100   7.684E-01
    7.200   7.994E-01
    7.300   8.314E-01
    7.400   8.642E-01
    7.500   8.980E-01
    7.600   9.326E-01
    7.700   9.681E-01
    7.800   1.004E+00
    7.900   1.042E+00
    8.000   1.080E+00
    8.100   1.119E+00
    8.200   1.159E+00
    8.300   1.200E+00
    8.400   1.242E+00
    8.500   1.285E+00
    8.600   1.329E+00
    8.700   1.375E+00
    8.800   1.421E+00
    8.900   1.469E+00
    9.000   1.519E+00
    9.100   1.570E+00
    9.200   1.623E+00
    9.300   1.678E+00
    9.400   1.735E+00
    9.500   1.793E+00
    9.600   1.855E+00
    9.700   1.918E+00
    9.800   1.984E+00
    9.900   2.053E+00
   10.000   2.124E+00
   10.100   2.199E+00
   10.200   2.277E+00
   10.300   2.358E+00
   10.400   2.442E+00
   10.500   2.530E+00
   10.600   2.622E+00
   10.700   2.718E+00
   10.800   2.817E+00
   10.900   2.921E+00
   11.000   3.029E+00
   11.100   3.142E+00
   11.200   3.259E+00
   11.300   3.381E+00
   11.400   3.507E+00
   11.500   3.638E+00
   11.600   3.774E+00
   11.700   3.915E+00
   11.800   4.060E+00
   11.900   4.211E+00
   12.000   4.366E+00
   12.100   4.527E+00
   12.200   4.691E+00
   12.300   4.861E+00
   12.400   5.034E+00
   12.500   5.212E+00
   12.600   5.394E+00
   12.700   5.579E+00
   12.800   5.768E+00
   12.900   5.960E+00
   13.000   6.153E+00
   13.100   6.349E+00
   13.200   6.546E+00
   13.300   6.743E+00
   13.400   6.941E+00
   13.500   7.138E+00
   13.600   7.333E+00
   13.700   7.526E+00
   13.800   7.716E+00
   13.900   7.902E+00
   14.000   8.083E+00
   14.100   8.258E+00
   14.200   8.426E+00
   14.300   8.587E+00
   14.400   8.739E+00
   14.500   8.882E+00
   14.600   9.016E+00
   14.700   9.138E+00
   14.800   9.250E+00
   14.900   9.350E+00
   15.000   9.438E+00
   15.100   9.513E+00
   15.200   9.576E+00
   15.300   9.627E+00
   15.400   9.665E+00
   15.500   9.691E+00
   15.600   9.705E+00
   15.700   9.707E+00
   15.800   9.698E+00
   15.900   9.678E+00
   16.000   9.648E+00
   16.100   9.608E+00
   16.200   9.558E+00
   16.300   9.500E+00
   16.400   9.434E+00
   16.500   9.359E+00
   16.600   9.278E+00
   16.700   9.190E+00
   16.800   9.095E+00
   16.900   8.995E+00
   17.000   8.889E+00
   17.100   8.778E+00
   17.200   8.662E+00
   17.300   8.541E+00
   17.400   8.416E+00
   17.500   8.287E+00
   17.600   8.154E+00
   17.700   8.017E+00
   17.800   7.876E+00
   17.900   7.733E+00
   18.000   7.586E+00
   18.100   7.437E+00
   18.200   7.285E+00
   18.300   7.131E+00
   18.400   6.975E+00
   18.500   6.817E+00
   18.600   6.659E+00
   18.700   6.500E+00
   18.800   6.341E+00
   18.900   6.183E+00
   19.000   6.025E+00
   19.100   5.868E+00
   19.200   5.713E+00
   19.300   5.560E+00
   19.400   5.410E+00
   19.500   5.262E+00
   19.600   5.117E+00
   19.700   4.975E+00
   19.800   4.836E+00
   19.900   4.701E+00
   20.000   4.570E+00
   20.100   4.442E+00
   20.200   4.318E+00
   20.300   4.198E+00
   20.400   4.081E+00
   20.500   3.969E+00
   20.600   3.860E+00
   20.700   3.754E+00
   20.800   3.653E+00
   20.900   3.555E+00
   21.000   3.460E+00
   21.100   3.369E+00
   21.200   3.280E+00
   21.300   3.196E+00
   21.400   3.114E+00
   21.500   3.035E+00
   21.600   2.958E+00
   21.700   2.885E+00
   21.800   2.814E+00
   21.900   2.746E+00
   22.000   2.680E+00
   22.100   2.616E+00
   22.200   2.555E+00
   22.300   2.495E+00
   22.400   2.438E+00
   22.500   2.383E+00
   22.600   2.329E+00
   22.700   2.278E+00
   22.800   2.228E+00
   22.900   2.180E+00
   23.000   2.133E+00
   23.100   2.088E+00
   23.200   2.044E+00
   23.300   2.002E+00
   23.400   1.961E+00
   23.500   1.922E+00
   23.600   1.883E+00
   23.700   1.846E+00
   23.800   1.810E+00
   23.900   1.775E+00
   24.000   1.741E+00
   24.100   1.709E+00
   24.200   1.677E+00
   24.300   1.646E+00
   24.400   1.616E+00
   24.500   1.587E+00
   24.600   1.558E+00
   24.700   1.531E+00
   24.800   1.504E+00
   24.900   1.478E+00
   25.000   1.452E+00
   25.100   1.428E+00
   25.200   1.404E+00
   25.300   1.380E+00
   25.400   1.358E+00
   25.500   1.336E+00
   25.600   1.314E+00
   25.700   1.293E+00
   25.800   1.273E+00
   25.900   1.253E+00
   26.000   1.233E+00
   26.100   1.214E+00
   26.200   1.196E+00
   26.300   1.178E+00
   26.400   1.160E+00
   26.500   1.143E+00
   26.600   1.126E+00
   26.700   1.110E+00
   26.800   1.094E+00
   26.900   1.078E+00
   27.000   1.063E+00
   27.100   1.048E+00
   27.200   1.033E+00
   27.300   1.019E+00
   27.400   1.005E+00
   27.500   9.913E-01
   27.600   9.780E-01
   27.700   9.649E-01
   27.800   9.521E-01
   27.900   9.396E-01
   28.000   9.274E-01
   28.100   9.154E-01
   28.200   9.036E-01
   28.300   8.921E-01
   28.400   8.809E-01
   28.500   8.698E-01
   28.600   8.590E-01
   28.700   8.484E-01
   28.800   8.380E-01
   28.900   8.278E-01
   29.000   8.179E-01
   29.100   8.081E-01
   29.200   7.985E-01
   29.300   7.890E-01
   29.400   7.798E-01
   29.500   7.707E-01
   29.600   7.618E-01
   29.700   7.531E-01
   29.800   7.445E-01
   29.900   7.361E-01
   30.000   7.279E-01
 
 Z=  36 A=  98  D1M-QRPA
   E[MeV]   fQRPA[mb/MeV]
    0.100   1.955E-04
    0.200   7.814E-04
    0.300   1.757E-03
    0.400   3.119E-03
    0.500   4.864E-03
    0.600   6.988E-03
    0.700   9.484E-03
    0.800   1.234E-02
    0.900   1.556E-02
    1.000   1.911E-02
    1.100   2.300E-02
    1.200   2.719E-02
    1.300   3.167E-02
    1.400   3.642E-02
    1.500   4.141E-02
    1.600   4.662E-02
    1.700   5.202E-02
    1.800   5.759E-02
    1.900   6.328E-02
    2.000   6.909E-02
    2.100   7.498E-02
    2.200   8.094E-02
    2.300   8.694E-02
    2.400   9.298E-02
    2.500   9.905E-02
    2.600   1.051E-01
    2.700   1.112E-01
    2.800   1.174E-01
    2.900   1.236E-01
    3.000   1.298E-01
    3.100   1.361E-01
    3.200   1.426E-01
    3.300   1.491E-01
    3.400   1.558E-01
    3.500   1.626E-01
    3.600   1.696E-01
    3.700   1.769E-01
    3.800   1.844E-01
    3.900   1.922E-01
    4.000   2.003E-01
    4.100   2.087E-01
    4.200   2.175E-01
    4.300   2.266E-01
    4.400   2.362E-01
    4.500   2.462E-01
    4.600   2.566E-01
    4.700   2.676E-01
    4.800   2.790E-01
    4.900   2.910E-01
    5.000   3.035E-01
    5.100   3.166E-01
    5.200   3.302E-01
    5.300   3.445E-01
    5.400   3.595E-01
    5.500   3.751E-01
    5.600   3.914E-01
    5.700   4.083E-01
    5.800   4.260E-01
    5.900   4.445E-01
    6.000   4.637E-01
    6.100   4.837E-01
    6.200   5.044E-01
    6.300   5.260E-01
    6.400   5.484E-01
    6.500   5.716E-01
    6.600   5.957E-01
    6.700   6.206E-01
    6.800   6.464E-01
    6.900   6.730E-01
    7.000   7.005E-01
    7.100   7.288E-01
    7.200   7.579E-01
    7.300   7.879E-01
    7.400   8.187E-01
    7.500   8.502E-01
    7.600   8.825E-01
    7.700   9.156E-01
    7.800   9.493E-01
    7.900   9.838E-01
    8.000   1.019E+00
    8.100   1.055E+00
    8.200   1.091E+00
    8.300   1.129E+00
    8.400   1.167E+00
    8.500   1.205E+00
    8.600   1.245E+00
    8.700   1.285E+00
    8.800   1.326E+00
    8.900   1.369E+00
    9.000   1.412E+00
    9.100   1.457E+00
    9.200   1.503E+00
    9.300   1.550E+00
    9.400   1.599E+00
    9.500   1.650E+00
    9.600   1.703E+00
    9.700   1.757E+00
    9.800   1.814E+00
    9.900   1.873E+00
   10.000   1.935E+00
   10.100   1.999E+00
   10.200   2.066E+00
   10.300   2.136E+00
   10.400   2.209E+00
   10.500   2.285E+00
   10.600   2.364E+00
   10.700   2.447E+00
   10.800   2.534E+00
   10.900   2.625E+00
   11.000   2.720E+00
   11.100   2.819E+00
   11.200   2.923E+00
   11.300   3.031E+00
   11.400   3.144E+00
   11.500   3.262E+00
   11.600   3.385E+00
   11.700   3.514E+00
   11.800   3.647E+00
   11.900   3.787E+00
   12.000   3.932E+00
   12.100   4.083E+00
   12.200   4.240E+00
   12.300   4.402E+00
   12.400   4.571E+00
   12.500   4.746E+00
   12.600   4.927E+00
   12.700   5.113E+00
   12.800   5.305E+00
   12.900   5.502E+00
   13.000   5.705E+00
   13.100   5.912E+00
   13.200   6.123E+00
   13.300   6.339E+00
   13.400   6.557E+00
   13.500   6.778E+00
   13.600   7.000E+00
   13.700   7.223E+00
   13.800   7.446E+00
   13.900   7.667E+00
   14.000   7.887E+00
   14.100   8.103E+00
   14.200   8.314E+00
   14.300   8.520E+00
   14.400   8.719E+00
   14.500   8.909E+00
   14.600   9.091E+00
   14.700   9.262E+00
   14.800   9.422E+00
   14.900   9.570E+00
   15.000   9.705E+00
   15.100   9.827E+00
   15.200   9.935E+00
   15.300   1.003E+01
   15.400   1.011E+01
   15.500   1.018E+01
   15.600   1.023E+01
   15.700   1.027E+01
   15.800   1.029E+01
   15.900   1.030E+01
   16.000   1.030E+01
   16.100   1.029E+01
   16.200   1.027E+01
   16.300   1.024E+01
   16.400   1.020E+01
   16.500   1.015E+01
   16.600   1.010E+01
   16.700   1.003E+01
   16.800   9.964E+00
   16.900   9.888E+00
   17.000   9.806E+00
   17.100   9.719E+00
   17.200   9.627E+00
   17.300   9.530E+00
   17.400   9.428E+00
   17.500   9.321E+00
   17.600   9.209E+00
   17.700   9.091E+00
   17.800   8.968E+00
   17.900   8.839E+00
   18.000   8.705E+00
   18.100   8.565E+00
   18.200   8.419E+00
   18.300   8.268E+00
   18.400   8.112E+00
   18.500   7.950E+00
   18.600   7.783E+00
   18.700   7.613E+00
   18.800   7.439E+00
   18.900   7.262E+00
   19.000   7.084E+00
   19.100   6.903E+00
   19.200   6.723E+00
   19.300   6.542E+00
   19.400   6.362E+00
   19.500   6.184E+00
   19.600   6.007E+00
   19.700   5.834E+00
   19.800   5.663E+00
   19.900   5.496E+00
   20.000   5.333E+00
   20.100   5.174E+00
   20.200   5.019E+00
   20.300   4.869E+00
   20.400   4.723E+00
   20.500   4.582E+00
   20.600   4.446E+00
   20.700   4.314E+00
   20.800   4.187E+00
   20.900   4.065E+00
   21.000   3.947E+00
   21.100   3.833E+00
   21.200   3.724E+00
   21.300   3.618E+00
   21.400   3.517E+00
   21.500   3.419E+00
   21.600   3.326E+00
   21.700   3.235E+00
   21.800   3.149E+00
   21.900   3.065E+00
   22.000   2.985E+00
   22.100   2.908E+00
   22.200   2.833E+00
   22.300   2.762E+00
   22.400   2.693E+00
   22.500   2.626E+00
   22.600   2.562E+00
   22.700   2.501E+00
   22.800   2.441E+00
   22.900   2.384E+00
   23.000   2.329E+00
   23.100   2.275E+00
   23.200   2.224E+00
   23.300   2.174E+00
   23.400   2.126E+00
   23.500   2.080E+00
   23.600   2.035E+00
   23.700   1.992E+00
   23.800   1.950E+00
   23.900   1.910E+00
   24.000   1.871E+00
   24.100   1.833E+00
   24.200   1.796E+00
   24.300   1.760E+00
   24.400   1.726E+00
   24.500   1.693E+00
   24.600   1.660E+00
   24.700   1.629E+00
   24.800   1.598E+00
   24.900   1.569E+00
   25.000   1.540E+00
   25.100   1.512E+00
   25.200   1.485E+00
   25.300   1.459E+00
   25.400   1.433E+00
   25.500   1.409E+00
   25.600   1.384E+00
   25.700   1.361E+00
   25.800   1.338E+00
   25.900   1.316E+00
   26.000   1.294E+00
   26.100   1.273E+00
   26.200   1.253E+00
   26.300   1.233E+00
   26.400   1.213E+00
   26.500   1.194E+00
   26.600   1.176E+00
   26.700   1.158E+00
   26.800   1.140E+00
   26.900   1.123E+00
   27.000   1.106E+00
   27.100   1.090E+00
   27.200   1.074E+00
   27.300   1.058E+00
   27.400   1.043E+00
   27.500   1.028E+00
   27.600   1.013E+00
   27.700   9.992E-01
   27.800   9.853E-01
   27.900   9.717E-01
   28.000   9.585E-01
   28.100   9.455E-01
   28.200   9.328E-01
   28.300   9.204E-01
   28.400   9.082E-01
   28.500   8.963E-01
   28.600   8.846E-01
   28.700   8.732E-01
   28.800   8.621E-01
   28.900   8.511E-01
   29.000   8.404E-01
   29.100   8.299E-01
   29.200   8.196E-01
   29.300   8.096E-01
   29.400   7.997E-01
   29.500   7.900E-01
   29.600   7.805E-01
   29.700   7.712E-01
   29.800   7.621E-01
   29.900   7.531E-01
   30.000   7.443E-01
 
