 Z=  38 A=  88  D1M-QRPA
   E[MeV]   fQRPA[mb/MeV]
    0.100   1.507E-05
    0.200   6.028E-05
    0.300   1.357E-04
    0.400   2.413E-04
    0.500   3.773E-04
    0.600   5.438E-04
    0.700   7.409E-04
    0.800   9.688E-04
    0.900   1.228E-03
    1.000   1.518E-03
    1.100   1.839E-03
    1.200   2.193E-03
    1.300   2.578E-03
    1.400   2.996E-03
    1.500   3.447E-03
    1.600   3.931E-03
    1.700   4.449E-03
    1.800   5.001E-03
    1.900   5.587E-03
    2.000   6.209E-03
    2.100   6.866E-03
    2.200   7.561E-03
    2.300   8.292E-03
    2.400   9.061E-03
    2.500   9.868E-03
    2.600   1.071E-02
    2.700   1.160E-02
    2.800   1.253E-02
    2.900   1.350E-02
    3.000   1.451E-02
    3.100   1.557E-02
    3.200   1.667E-02
    3.300   1.782E-02
    3.400   1.901E-02
    3.500   2.026E-02
    3.600   2.155E-02
    3.700   2.290E-02
    3.800   2.430E-02
    3.900   2.575E-02
    4.000   2.726E-02
    4.100   2.882E-02
    4.200   3.045E-02
    4.300   3.213E-02
    4.400   3.388E-02
    4.500   3.570E-02
    4.600   3.758E-02
    4.700   3.953E-02
    4.800   4.156E-02
    4.900   4.366E-02
    5.000   4.583E-02
    5.100   4.809E-02
    5.200   5.043E-02
    5.300   5.286E-02
    5.400   5.537E-02
    5.500   5.798E-02
    5.600   6.069E-02
    5.700   6.349E-02
    5.800   6.640E-02
    5.900   6.942E-02
    6.000   7.256E-02
    6.100   7.581E-02
    6.200   7.918E-02
    6.300   8.269E-02
    6.400   8.633E-02
    6.500   9.010E-02
    6.600   9.403E-02
    6.700   9.811E-02
    6.800   1.024E-01
    6.900   1.068E-01
    7.000   1.114E-01
    7.100   1.161E-01
    7.200   1.211E-01
    7.300   1.263E-01
    7.400   1.317E-01
    7.500   1.373E-01
    7.600   1.431E-01
    7.700   1.493E-01
    7.800   1.556E-01
    7.900   1.623E-01
    8.000   1.692E-01
    8.100   1.765E-01
    8.200   1.840E-01
    8.300   1.920E-01
    8.400   2.002E-01
    8.500   2.089E-01
    8.600   2.179E-01
    8.700   2.274E-01
    8.800   2.373E-01
    8.900   2.477E-01
    9.000   2.585E-01
    9.100   2.699E-01
    9.200   2.818E-01
    9.300   2.943E-01
    9.400   3.074E-01
    9.500   3.212E-01
    9.600   3.356E-01
    9.700   3.508E-01
    9.800   3.668E-01
    9.900   3.837E-01
   10.000   4.015E-01
   10.100   4.202E-01
   10.200   4.400E-01
   10.300   4.608E-01
   10.400   4.828E-01
   10.500   5.060E-01
   10.600   5.306E-01
   10.700   5.564E-01
   10.800   5.836E-01
   10.900   6.122E-01
   11.000   6.423E-01
   11.100   6.739E-01
   11.200   7.069E-01
   11.300   7.414E-01
   11.400   7.774E-01
   11.500   8.148E-01
   11.600   8.535E-01
   11.700   8.935E-01
   11.800   9.346E-01
   11.900   9.769E-01
   12.000   1.020E+00
   12.100   1.064E+00
   12.200   1.109E+00
   12.300   1.155E+00
   12.400   1.202E+00
   12.500   1.250E+00
   12.600   1.299E+00
   12.700   1.350E+00
   12.800   1.401E+00
   12.900   1.455E+00
   13.000   1.511E+00
   13.100   1.569E+00
   13.200   1.631E+00
   13.300   1.696E+00
   13.400   1.764E+00
   13.500   1.837E+00
   13.600   1.915E+00
   13.700   1.998E+00
   13.800   2.087E+00
   13.900   2.182E+00
   14.000   2.285E+00
   14.100   2.394E+00
   14.200   2.512E+00
   14.300   2.638E+00
   14.400   2.773E+00
   14.500   2.918E+00
   14.600   3.072E+00
   14.700   3.237E+00
   14.800   3.413E+00
   14.900   3.599E+00
   15.000   3.797E+00
   15.100   4.006E+00
   15.200   4.227E+00
   15.300   4.458E+00
   15.400   4.701E+00
   15.500   4.953E+00
   15.600   5.213E+00
   15.700   5.479E+00
   15.800   5.749E+00
   15.900   6.020E+00
   16.000   6.288E+00
   16.100   6.549E+00
   16.200   6.800E+00
   16.300   7.035E+00
   16.400   7.253E+00
   16.500   7.450E+00
   16.600   7.625E+00
   16.700   7.775E+00
   16.800   7.901E+00
   16.900   8.002E+00
   17.000   8.080E+00
   17.100   8.135E+00
   17.200   8.167E+00
   17.300   8.178E+00
   17.400   8.166E+00
   17.500   8.134E+00
   17.600   8.079E+00
   17.700   8.004E+00
   17.800   7.907E+00
   17.900   7.789E+00
   18.000   7.652E+00
   18.100   7.496E+00
   18.200   7.322E+00
   18.300   7.134E+00
   18.400   6.932E+00
   18.500   6.721E+00
   18.600   6.502E+00
   18.700   6.278E+00
   18.800   6.053E+00
   18.900   5.829E+00
   19.000   5.608E+00
   19.100   5.392E+00
   19.200   5.183E+00
   19.300   4.982E+00
   19.400   4.790E+00
   19.500   4.607E+00
   19.600   4.433E+00
   19.700   4.268E+00
   19.800   4.111E+00
   19.900   3.963E+00
   20.000   3.821E+00
   20.100   3.685E+00
   20.200   3.555E+00
   20.300   3.430E+00
   20.400   3.308E+00
   20.500   3.190E+00
   20.600   3.075E+00
   20.700   2.962E+00
   20.800   2.853E+00
   20.900   2.747E+00
   21.000   2.643E+00
   21.100   2.543E+00
   21.200   2.447E+00
   21.300   2.354E+00
   21.400   2.265E+00
   21.500   2.180E+00
   21.600   2.098E+00
   21.700   2.020E+00
   21.800   1.947E+00
   21.900   1.876E+00
   22.000   1.810E+00
   22.100   1.747E+00
   22.200   1.687E+00
   22.300   1.630E+00
   22.400   1.576E+00
   22.500   1.526E+00
   22.600   1.478E+00
   22.700   1.433E+00
   22.800   1.390E+00
   22.900   1.349E+00
   23.000   1.311E+00
   23.100   1.275E+00
   23.200   1.241E+00
   23.300   1.209E+00
   23.400   1.178E+00
   23.500   1.149E+00
   23.600   1.121E+00
   23.700   1.094E+00
   23.800   1.069E+00
   23.900   1.044E+00
   24.000   1.021E+00
   24.100   9.987E-01
   24.200   9.771E-01
   24.300   9.562E-01
   24.400   9.361E-01
   24.500   9.166E-01
   24.600   8.976E-01
   24.700   8.793E-01
   24.800   8.614E-01
   24.900   8.441E-01
   25.000   8.272E-01
   25.100   8.109E-01
   25.200   7.950E-01
   25.300   7.797E-01
   25.400   7.649E-01
   25.500   7.506E-01
   25.600   7.368E-01
   25.700   7.235E-01
   25.800   7.107E-01
   25.900   6.983E-01
   26.000   6.863E-01
   26.100   6.746E-01
   26.200   6.632E-01
   26.300   6.519E-01
   26.400   6.407E-01
   26.500   6.296E-01
   26.600   6.184E-01
   26.700   6.072E-01
   26.800   5.959E-01
   26.900   5.845E-01
   27.000   5.731E-01
   27.100   5.617E-01
   27.200   5.503E-01
   27.300   5.390E-01
   27.400   5.278E-01
   27.500   5.167E-01
   27.600   5.059E-01
   27.700   4.954E-01
   27.800   4.850E-01
   27.900   4.750E-01
   28.000   4.653E-01
   28.100   4.559E-01
   28.200   4.468E-01
   28.300   4.380E-01
   28.400   4.295E-01
   28.500   4.212E-01
   28.600   4.133E-01
   28.700   4.056E-01
   28.800   3.983E-01
   28.900   3.911E-01
   29.000   3.842E-01
   29.100   3.775E-01
   29.200   3.711E-01
   29.300   3.648E-01
   29.400   3.588E-01
   29.500   3.529E-01
   29.600   3.473E-01
   29.700   3.418E-01
   29.800   3.364E-01
   29.900   3.312E-01
   30.000   3.262E-01
 
 Z=  38 A=  89  D1M-QRPA-Inter
 E[MeV]  fQRPA[mb/MeV]
    0.100   2.932E-05
    0.200   1.173E-04
    0.300   2.641E-04
    0.400   4.697E-04
    0.500   7.345E-04
    0.600   1.059E-03
    0.700   1.443E-03
    0.800   1.887E-03
    0.900   2.391E-03
    1.000   2.957E-03
    1.100   3.585E-03
    1.200   4.275E-03
    1.300   5.028E-03
    1.400   5.845E-03
    1.500   6.727E-03
    1.600   7.674E-03
    1.700   8.688E-03
    1.800   9.771E-03
    1.900   1.092E-02
    2.000   1.214E-02
    2.100   1.344E-02
    2.200   1.480E-02
    2.300   1.624E-02
    2.400   1.776E-02
    2.500   1.936E-02
    2.600   2.103E-02
    2.700   2.279E-02
    2.800   2.463E-02
    2.900   2.656E-02
    3.000   2.857E-02
    3.100   3.068E-02
    3.200   3.288E-02
    3.300   3.517E-02
    3.400   3.757E-02
    3.500   4.007E-02
    3.600   4.267E-02
    3.700   4.538E-02
    3.800   4.820E-02
    3.900   5.114E-02
    4.000   5.420E-02
    4.100   5.738E-02
    4.200   6.069E-02
    4.300   6.414E-02
    4.400   6.772E-02
    4.500   7.145E-02
    4.600   7.532E-02
    4.700   7.935E-02
    4.800   8.354E-02
    4.900   8.790E-02
    5.000   9.243E-02
    5.100   9.714E-02
    5.200   1.020E-01
    5.300   1.071E-01
    5.400   1.124E-01
    5.500   1.179E-01
    5.600   1.237E-01
    5.700   1.296E-01
    5.800   1.358E-01
    5.900   1.423E-01
    6.000   1.490E-01
    6.100   1.560E-01
    6.200   1.633E-01
    6.300   1.709E-01
    6.400   1.788E-01
    6.500   1.870E-01
    6.600   1.956E-01
    6.700   2.045E-01
    6.800   2.138E-01
    6.900   2.235E-01
    7.000   2.336E-01
    7.100   2.441E-01
    7.200   2.550E-01
    7.300   2.664E-01
    7.400   2.783E-01
    7.500   2.906E-01
    7.600   3.035E-01
    7.700   3.169E-01
    7.800   3.309E-01
    7.900   3.455E-01
    8.000   3.606E-01
    8.100   3.764E-01
    8.200   3.929E-01
    8.300   4.100E-01
    8.400   4.278E-01
    8.500   4.464E-01
    8.600   4.656E-01
    8.700   4.857E-01
    8.800   5.065E-01
    8.900   5.281E-01
    9.000   5.506E-01
    9.100   5.739E-01
    9.200   5.980E-01
    9.300   6.230E-01
    9.400   6.489E-01
    9.500   6.757E-01
    9.600   7.034E-01
    9.700   7.321E-01
    9.800   7.618E-01
    9.900   7.925E-01
   10.000   8.243E-01
   10.100   8.572E-01
   10.200   8.913E-01
   10.300   9.267E-01
   10.400   9.633E-01
   10.500   1.001E+00
   10.600   1.041E+00
   10.700   1.082E+00
   10.800   1.125E+00
   10.900   1.169E+00
   11.000   1.216E+00
   11.100   1.264E+00
   11.200   1.315E+00
   11.300   1.367E+00
   11.400   1.422E+00
   11.500   1.479E+00
   11.600   1.539E+00
   11.700   1.601E+00
   11.800   1.665E+00
   11.900   1.732E+00
   12.000   1.801E+00
   12.100   1.873E+00
   12.200   1.948E+00
   12.300   2.026E+00
   12.400   2.107E+00
   12.500   2.191E+00
   12.600   2.278E+00
   12.700   2.370E+00
   12.800   2.465E+00
   12.900   2.565E+00
   13.000   2.670E+00
   13.100   2.779E+00
   13.200   2.895E+00
   13.300   3.016E+00
   13.400   3.144E+00
   13.500   3.279E+00
   13.600   3.421E+00
   13.700   3.571E+00
   13.800   3.729E+00
   13.900   3.895E+00
   14.000   4.070E+00
   14.100   4.253E+00
   14.200   4.445E+00
   14.300   4.645E+00
   14.400   4.854E+00
   14.500   5.071E+00
   14.600   5.296E+00
   14.700   5.528E+00
   14.800   5.765E+00
   14.900   6.009E+00
   15.000   6.257E+00
   15.100   6.507E+00
   15.200   6.760E+00
   15.300   7.013E+00
   15.400   7.264E+00
   15.500   7.511E+00
   15.600   7.752E+00
   15.700   7.984E+00
   15.800   8.205E+00
   15.900   8.411E+00
   16.000   8.599E+00
   16.100   8.767E+00
   16.200   8.912E+00
   16.300   9.032E+00
   16.400   9.125E+00
   16.500   9.190E+00
   16.600   9.228E+00
   16.700   9.238E+00
   16.800   9.223E+00
   16.900   9.184E+00
   17.000   9.121E+00
   17.100   9.039E+00
   17.200   8.937E+00
   17.300   8.818E+00
   17.400   8.684E+00
   17.500   8.536E+00
   17.600   8.375E+00
   17.700   8.203E+00
   17.800   8.020E+00
   17.900   7.828E+00
   18.000   7.628E+00
   18.100   7.421E+00
   18.200   7.209E+00
   18.300   6.993E+00
   18.400   6.775E+00
   18.500   6.555E+00
   18.600   6.336E+00
   18.700   6.119E+00
   18.800   5.906E+00
   18.900   5.697E+00
   19.000   5.493E+00
   19.100   5.296E+00
   19.200   5.106E+00
   19.300   4.924E+00
   19.400   4.750E+00
   19.500   4.584E+00
   19.600   4.425E+00
   19.700   4.274E+00
   19.800   4.131E+00
   19.900   3.994E+00
   20.000   3.863E+00
   20.100   3.738E+00
   20.200   3.619E+00
   20.300   3.504E+00
   20.400   3.393E+00
   20.500   3.286E+00
   20.600   3.183E+00
   20.700   3.082E+00
   20.800   2.985E+00
   20.900   2.892E+00
   21.000   2.801E+00
   21.100   2.713E+00
   21.200   2.628E+00
   21.300   2.547E+00
   21.400   2.468E+00
   21.500   2.392E+00
   21.600   2.320E+00
   21.700   2.250E+00
   21.800   2.183E+00
   21.900   2.119E+00
   22.000   2.057E+00
   22.100   1.998E+00
   22.200   1.941E+00
   22.300   1.887E+00
   22.400   1.835E+00
   22.500   1.785E+00
   22.600   1.737E+00
   22.700   1.691E+00
   22.800   1.648E+00
   22.900   1.606E+00
   23.000   1.566E+00
   23.100   1.527E+00
   23.200   1.491E+00
   23.300   1.455E+00
   23.400   1.422E+00
   23.500   1.389E+00
   23.600   1.358E+00
   23.700   1.328E+00
   23.800   1.299E+00
   23.900   1.271E+00
   24.000   1.244E+00
   24.100   1.218E+00
   24.200   1.193E+00
   24.300   1.169E+00
   24.400   1.146E+00
   24.500   1.123E+00
   24.600   1.101E+00
   24.700   1.079E+00
   24.800   1.058E+00
   24.900   1.038E+00
   25.000   1.018E+00
   25.100   9.992E-01
   25.200   9.806E-01
   25.300   9.626E-01
   25.400   9.452E-01
   25.500   9.283E-01
   25.600   9.119E-01
   25.700   8.961E-01
   25.800   8.808E-01
   25.900   8.659E-01
   26.000   8.514E-01
   26.100   8.374E-01
   26.200   8.236E-01
   26.300   8.101E-01
   26.400   7.969E-01
   26.500   7.838E-01
   26.600   7.709E-01
   26.700   7.580E-01
   26.800   7.453E-01
   26.900   7.327E-01
   27.000   7.202E-01
   27.100   7.077E-01
   27.200   6.955E-01
   27.300   6.833E-01
   27.400   6.714E-01
   27.500   6.597E-01
   27.600   6.482E-01
   27.700   6.369E-01
   27.800   6.259E-01
   27.900   6.152E-01
   28.000   6.048E-01
   28.100   5.946E-01
   28.200   5.848E-01
   28.300   5.752E-01
   28.400   5.659E-01
   28.500   5.568E-01
   28.600   5.480E-01
   28.700   5.394E-01
   28.800   5.311E-01
   28.900   5.231E-01
   29.000   5.152E-01
   29.100   5.076E-01
   29.200   5.001E-01
   29.300   4.929E-01
   29.400   4.859E-01
   29.500   4.790E-01
   29.600   4.723E-01
   29.700   4.658E-01
   29.800   4.594E-01
   29.900   4.532E-01
   30.000   4.472E-01
 
 Z=  38 A=  90  D1M-QRPA
   E[MeV]   fQRPA[mb/MeV]
    0.100   5.269E-05
    0.200   2.108E-04
    0.300   4.745E-04
    0.400   8.442E-04
    0.500   1.320E-03
    0.600   1.903E-03
    0.700   2.594E-03
    0.800   3.393E-03
    0.900   4.301E-03
    1.000   5.320E-03
    1.100   6.451E-03
    1.200   7.695E-03
    1.300   9.053E-03
    1.400   1.053E-02
    1.500   1.212E-02
    1.600   1.383E-02
    1.700   1.567E-02
    1.800   1.763E-02
    1.900   1.971E-02
    2.000   2.193E-02
    2.100   2.428E-02
    2.200   2.676E-02
    2.300   2.938E-02
    2.400   3.215E-02
    2.500   3.506E-02
    2.600   3.812E-02
    2.700   4.133E-02
    2.800   4.470E-02
    2.900   4.824E-02
    3.000   5.194E-02
    3.100   5.582E-02
    3.200   5.987E-02
    3.300   6.411E-02
    3.400   6.854E-02
    3.500   7.317E-02
    3.600   7.800E-02
    3.700   8.304E-02
    3.800   8.830E-02
    3.900   9.379E-02
    4.000   9.952E-02
    4.100   1.055E-01
    4.200   1.117E-01
    4.300   1.182E-01
    4.400   1.250E-01
    4.500   1.320E-01
    4.600   1.394E-01
    4.700   1.471E-01
    4.800   1.551E-01
    4.900   1.634E-01
    5.000   1.721E-01
    5.100   1.812E-01
    5.200   1.906E-01
    5.300   2.005E-01
    5.400   2.108E-01
    5.500   2.215E-01
    5.600   2.327E-01
    5.700   2.444E-01
    5.800   2.566E-01
    5.900   2.694E-01
    6.000   2.826E-01
    6.100   2.965E-01
    6.200   3.110E-01
    6.300   3.261E-01
    6.400   3.419E-01
    6.500   3.584E-01
    6.600   3.756E-01
    6.700   3.936E-01
    6.800   4.123E-01
    6.900   4.319E-01
    7.000   4.523E-01
    7.100   4.736E-01
    7.200   4.958E-01
    7.300   5.189E-01
    7.400   5.430E-01
    7.500   5.681E-01
    7.600   5.942E-01
    7.700   6.214E-01
    7.800   6.497E-01
    7.900   6.791E-01
    8.000   7.097E-01
    8.100   7.415E-01
    8.200   7.744E-01
    8.300   8.086E-01
    8.400   8.440E-01
    8.500   8.807E-01
    8.600   9.186E-01
    8.700   9.578E-01
    8.800   9.982E-01
    8.900   1.040E+00
    9.000   1.083E+00
    9.100   1.127E+00
    9.200   1.172E+00
    9.300   1.218E+00
    9.400   1.265E+00
    9.500   1.313E+00
    9.600   1.361E+00
    9.700   1.411E+00
    9.800   1.461E+00
    9.900   1.511E+00
   10.000   1.563E+00
   10.100   1.615E+00
   10.200   1.667E+00
   10.300   1.721E+00
   10.400   1.775E+00
   10.500   1.830E+00
   10.600   1.886E+00
   10.700   1.943E+00
   10.800   2.002E+00
   10.900   2.063E+00
   11.000   2.125E+00
   11.100   2.190E+00
   11.200   2.258E+00
   11.300   2.328E+00
   11.400   2.402E+00
   11.500   2.480E+00
   11.600   2.562E+00
   11.700   2.648E+00
   11.800   2.739E+00
   11.900   2.835E+00
   12.000   2.937E+00
   12.100   3.045E+00
   12.200   3.159E+00
   12.300   3.281E+00
   12.400   3.409E+00
   12.500   3.545E+00
   12.600   3.690E+00
   12.700   3.842E+00
   12.800   4.004E+00
   12.900   4.175E+00
   13.000   4.355E+00
   13.100   4.545E+00
   13.200   4.744E+00
   13.300   4.954E+00
   13.400   5.174E+00
   13.500   5.404E+00
   13.600   5.644E+00
   13.700   5.894E+00
   13.800   6.152E+00
   13.900   6.419E+00
   14.000   6.694E+00
   14.100   6.975E+00
   14.200   7.262E+00
   14.300   7.553E+00
   14.400   7.845E+00
   14.500   8.138E+00
   14.600   8.429E+00
   14.700   8.715E+00
   14.800   8.994E+00
   14.900   9.263E+00
   15.000   9.519E+00
   15.100   9.760E+00
   15.200   9.983E+00
   15.300   1.019E+01
   15.400   1.036E+01
   15.500   1.052E+01
   15.600   1.064E+01
   15.700   1.074E+01
   15.800   1.081E+01
   15.900   1.085E+01
   16.000   1.086E+01
   16.100   1.084E+01
   16.200   1.079E+01
   16.300   1.071E+01
   16.400   1.060E+01
   16.500   1.047E+01
   16.600   1.031E+01
   16.700   1.014E+01
   16.800   9.942E+00
   16.900   9.731E+00
   17.000   9.508E+00
   17.100   9.273E+00
   17.200   9.030E+00
   17.300   8.781E+00
   17.400   8.527E+00
   17.500   8.272E+00
   17.600   8.017E+00
   17.700   7.763E+00
   17.800   7.511E+00
   17.900   7.264E+00
   18.000   7.021E+00
   18.100   6.784E+00
   18.200   6.554E+00
   18.300   6.330E+00
   18.400   6.113E+00
   18.500   5.904E+00
   18.600   5.702E+00
   18.700   5.507E+00
   18.800   5.320E+00
   18.900   5.140E+00
   19.000   4.968E+00
   19.100   4.803E+00
   19.200   4.645E+00
   19.300   4.494E+00
   19.400   4.349E+00
   19.500   4.211E+00
   19.600   4.079E+00
   19.700   3.953E+00
   19.800   3.832E+00
   19.900   3.717E+00
   20.000   3.607E+00
   20.100   3.502E+00
   20.200   3.401E+00
   20.300   3.305E+00
   20.400   3.213E+00
   20.500   3.126E+00
   20.600   3.042E+00
   20.700   2.962E+00
   20.800   2.885E+00
   20.900   2.811E+00
   21.000   2.740E+00
   21.100   2.672E+00
   21.200   2.607E+00
   21.300   2.544E+00
   21.400   2.483E+00
   21.500   2.425E+00
   21.600   2.368E+00
   21.700   2.313E+00
   21.800   2.260E+00
   21.900   2.209E+00
   22.000   2.159E+00
   22.100   2.110E+00
   22.200   2.063E+00
   22.300   2.016E+00
   22.400   1.972E+00
   22.500   1.928E+00
   22.600   1.885E+00
   22.700   1.844E+00
   22.800   1.804E+00
   22.900   1.764E+00
   23.000   1.726E+00
   23.100   1.689E+00
   23.200   1.653E+00
   23.300   1.618E+00
   23.400   1.584E+00
   23.500   1.551E+00
   23.600   1.519E+00
   23.700   1.488E+00
   23.800   1.458E+00
   23.900   1.429E+00
   24.000   1.400E+00
   24.100   1.373E+00
   24.200   1.346E+00
   24.300   1.320E+00
   24.400   1.294E+00
   24.500   1.270E+00
   24.600   1.246E+00
   24.700   1.223E+00
   24.800   1.200E+00
   24.900   1.179E+00
   25.000   1.157E+00
   25.100   1.137E+00
   25.200   1.117E+00
   25.300   1.097E+00
   25.400   1.078E+00
   25.500   1.060E+00
   25.600   1.042E+00
   25.700   1.025E+00
   25.800   1.008E+00
   25.900   9.914E-01
   26.000   9.753E-01
   26.100   9.597E-01
   26.200   9.444E-01
   26.300   9.296E-01
   26.400   9.151E-01
   26.500   9.010E-01
   26.600   8.873E-01
   26.700   8.739E-01
   26.800   8.608E-01
   26.900   8.480E-01
   27.000   8.356E-01
   27.100   8.234E-01
   27.200   8.116E-01
   27.300   8.000E-01
   27.400   7.886E-01
   27.500   7.776E-01
   27.600   7.668E-01
   27.700   7.562E-01
   27.800   7.459E-01
   27.900   7.358E-01
   28.000   7.259E-01
   28.100   7.162E-01
   28.200   7.067E-01
   28.300   6.975E-01
   28.400   6.884E-01
   28.500   6.796E-01
   28.600   6.709E-01
   28.700   6.624E-01
   28.800   6.541E-01
   28.900   6.459E-01
   29.000   6.379E-01
   29.100   6.301E-01
   29.200   6.224E-01
   29.300   6.149E-01
   29.400   6.075E-01
   29.500   6.003E-01
   29.600   5.932E-01
   29.700   5.862E-01
   29.800   5.794E-01
   29.900   5.727E-01
   30.000   5.661E-01
 
 Z=  38 A=  91  D1M-QRPA-Inter
 E[MeV]  fQRPA[mb/MeV]
    0.100   1.012E-03
    0.200   2.951E-03
    0.300   5.008E-03
    0.400   7.048E-03
    0.500   9.067E-03
    0.600   1.108E-02
    0.700   1.309E-02
    0.800   1.512E-02
    0.900   1.716E-02
    1.000   1.923E-02
    1.100   2.132E-02
    1.200   2.346E-02
    1.300   2.563E-02
    1.400   2.785E-02
    1.500   3.013E-02
    1.600   3.247E-02
    1.700   3.487E-02
    1.800   3.735E-02
    1.900   3.991E-02
    2.000   4.255E-02
    2.100   4.529E-02
    2.200   4.813E-02
    2.300   5.108E-02
    2.400   5.415E-02
    2.500   5.734E-02
    2.600   6.067E-02
    2.700   6.414E-02
    2.800   6.776E-02
    2.900   7.155E-02
    3.000   7.550E-02
    3.100   7.963E-02
    3.200   8.395E-02
    3.300   8.846E-02
    3.400   9.319E-02
    3.500   9.814E-02
    3.600   1.033E-01
    3.700   1.087E-01
    3.800   1.144E-01
    3.900   1.203E-01
    4.000   1.265E-01
    4.100   1.330E-01
    4.200   1.398E-01
    4.300   1.470E-01
    4.400   1.544E-01
    4.500   1.622E-01
    4.600   1.704E-01
    4.700   1.789E-01
    4.800   1.879E-01
    4.900   1.972E-01
    5.000   2.070E-01
    5.100   2.173E-01
    5.200   2.280E-01
    5.300   2.392E-01
    5.400   2.509E-01
    5.500   2.631E-01
    5.600   2.759E-01
    5.700   2.893E-01
    5.800   3.032E-01
    5.900   3.178E-01
    6.000   3.330E-01
    6.100   3.488E-01
    6.200   3.653E-01
    6.300   3.825E-01
    6.400   4.004E-01
    6.500   4.190E-01
    6.600   4.384E-01
    6.700   4.585E-01
    6.800   4.795E-01
    6.900   5.012E-01
    7.000   5.238E-01
    7.100   5.473E-01
    7.200   5.717E-01
    7.300   5.970E-01
    7.400   6.233E-01
    7.500   6.506E-01
    7.600   6.788E-01
    7.700   7.081E-01
    7.800   7.384E-01
    7.900   7.699E-01
    8.000   8.024E-01
    8.100   8.360E-01
    8.200   8.708E-01
    8.300   9.067E-01
    8.400   9.438E-01
    8.500   9.821E-01
    8.600   1.022E+00
    8.700   1.062E+00
    8.800   1.104E+00
    8.900   1.147E+00
    9.000   1.191E+00
    9.100   1.236E+00
    9.200   1.282E+00
    9.300   1.329E+00
    9.400   1.378E+00
    9.500   1.427E+00
    9.600   1.477E+00
    9.700   1.529E+00
    9.800   1.581E+00
    9.900   1.634E+00
   10.000   1.688E+00
   10.100   1.743E+00
   10.200   1.799E+00
   10.300   1.857E+00
   10.400   1.915E+00
   10.500   1.976E+00
   10.600   2.037E+00
   10.700   2.101E+00
   10.800   2.166E+00
   10.900   2.234E+00
   11.000   2.304E+00
   11.100   2.377E+00
   11.200   2.453E+00
   11.300   2.533E+00
   11.400   2.616E+00
   11.500   2.703E+00
   11.600   2.795E+00
   11.700   2.891E+00
   11.800   2.993E+00
   11.900   3.100E+00
   12.000   3.213E+00
   12.100   3.332E+00
   12.200   3.458E+00
   12.300   3.591E+00
   12.400   3.731E+00
   12.500   3.878E+00
   12.600   4.034E+00
   12.700   4.198E+00
   12.800   4.370E+00
   12.900   4.551E+00
   13.000   4.741E+00
   13.100   4.940E+00
   13.200   5.147E+00
   13.300   5.363E+00
   13.400   5.588E+00
   13.500   5.821E+00
   13.600   6.061E+00
   13.700   6.308E+00
   13.800   6.562E+00
   13.900   6.820E+00
   14.000   7.083E+00
   14.100   7.348E+00
   14.200   7.614E+00
   14.300   7.880E+00
   14.400   8.144E+00
   14.500   8.403E+00
   14.600   8.656E+00
   14.700   8.902E+00
   14.800   9.137E+00
   14.900   9.360E+00
   15.000   9.569E+00
   15.100   9.763E+00
   15.200   9.939E+00
   15.300   1.010E+01
   15.400   1.024E+01
   15.500   1.035E+01
   15.600   1.045E+01
   15.700   1.052E+01
   15.800   1.057E+01
   15.900   1.060E+01
   16.000   1.060E+01
   16.100   1.058E+01
   16.200   1.053E+01
   16.300   1.047E+01
   16.400   1.038E+01
   16.500   1.027E+01
   16.600   1.014E+01
   16.700   9.989E+00
   16.800   9.824E+00
   16.900   9.645E+00
   17.000   9.453E+00
   17.100   9.249E+00
   17.200   9.037E+00
   17.300   8.818E+00
   17.400   8.593E+00
   17.500   8.365E+00
   17.600   8.135E+00
   17.700   7.905E+00
   17.800   7.676E+00
   17.900   7.448E+00
   18.000   7.224E+00
   18.100   7.004E+00
   18.200   6.788E+00
   18.300   6.578E+00
   18.400   6.373E+00
   18.500   6.174E+00
   18.600   5.981E+00
   18.700   5.794E+00
   18.800   5.614E+00
   18.900   5.439E+00
   19.000   5.271E+00
   19.100   5.110E+00
   19.200   4.954E+00
   19.300   4.804E+00
   19.400   4.660E+00
   19.500   4.522E+00
   19.600   4.390E+00
   19.700   4.262E+00
   19.800   4.141E+00
   19.900   4.024E+00
   20.000   3.912E+00
   20.100   3.805E+00
   20.200   3.702E+00
   20.300   3.604E+00
   20.400   3.511E+00
   20.500   3.421E+00
   20.600   3.335E+00
   20.700   3.253E+00
   20.800   3.174E+00
   20.900   3.098E+00
   21.000   3.026E+00
   21.100   2.956E+00
   21.200   2.888E+00
   21.300   2.823E+00
   21.400   2.760E+00
   21.500   2.699E+00
   21.600   2.640E+00
   21.700   2.582E+00
   21.800   2.526E+00
   21.900   2.471E+00
   22.000   2.418E+00
   22.100   2.365E+00
   22.200   2.314E+00
   22.300   2.263E+00
   22.400   2.214E+00
   22.500   2.165E+00
   22.600   2.118E+00
   22.700   2.072E+00
   22.800   2.027E+00
   22.900   1.982E+00
   23.000   1.939E+00
   23.100   1.897E+00
   23.200   1.857E+00
   23.300   1.817E+00
   23.400   1.778E+00
   23.500   1.741E+00
   23.600   1.704E+00
   23.700   1.669E+00
   23.800   1.635E+00
   23.900   1.602E+00
   24.000   1.569E+00
   24.100   1.538E+00
   24.200   1.508E+00
   24.300   1.478E+00
   24.400   1.449E+00
   24.500   1.422E+00
   24.600   1.394E+00
   24.700   1.368E+00
   24.800   1.342E+00
   24.900   1.317E+00
   25.000   1.293E+00
   25.100   1.269E+00
   25.200   1.245E+00
   25.300   1.223E+00
   25.400   1.200E+00
   25.500   1.179E+00
   25.600   1.158E+00
   25.700   1.137E+00
   25.800   1.117E+00
   25.900   1.097E+00
   26.000   1.078E+00
   26.100   1.059E+00
   26.200   1.041E+00
   26.300   1.023E+00
   26.400   1.005E+00
   26.500   9.885E-01
   26.600   9.720E-01
   26.700   9.559E-01
   26.800   9.402E-01
   26.900   9.249E-01
   27.000   9.100E-01
   27.100   8.955E-01
   27.200   8.814E-01
   27.300   8.676E-01
   27.400   8.542E-01
   27.500   8.411E-01
   27.600   8.284E-01
   27.700   8.160E-01
   27.800   8.039E-01
   27.900   7.921E-01
   28.000   7.806E-01
   28.100   7.693E-01
   28.200   7.584E-01
   28.300   7.477E-01
   28.400   7.372E-01
   28.500   7.270E-01
   28.600   7.171E-01
   28.700   7.073E-01
   28.800   6.978E-01
   28.900   6.886E-01
   29.000   6.795E-01
   29.100   6.706E-01
   29.200   6.619E-01
   29.300   6.534E-01
   29.400   6.451E-01
   29.500   6.370E-01
   29.600   6.290E-01
   29.700   6.212E-01
   29.800   6.136E-01
   29.900   6.061E-01
   30.000   5.988E-01
 
 Z=  38 A=  92  D1M-QRPA
   E[MeV]   fQRPA[mb/MeV]
    0.100   1.936E-02
    0.200   4.116E-02
    0.300   5.266E-02
    0.400   5.863E-02
    0.500   6.206E-02
    0.600   6.426E-02
    0.700   6.585E-02
    0.800   6.711E-02
    0.900   6.821E-02
    1.000   6.923E-02
    1.100   7.023E-02
    1.200   7.125E-02
    1.300   7.231E-02
    1.400   7.344E-02
    1.500   7.465E-02
    1.600   7.594E-02
    1.700   7.735E-02
    1.800   7.886E-02
    1.900   8.050E-02
    2.000   8.228E-02
    2.100   8.419E-02
    2.200   8.626E-02
    2.300   8.849E-02
    2.400   9.089E-02
    2.500   9.347E-02
    2.600   9.623E-02
    2.700   9.919E-02
    2.800   1.024E-01
    2.900   1.057E-01
    3.000   1.094E-01
    3.100   1.132E-01
    3.200   1.173E-01
    3.300   1.217E-01
    3.400   1.263E-01
    3.500   1.312E-01
    3.600   1.364E-01
    3.700   1.419E-01
    3.800   1.477E-01
    3.900   1.538E-01
    4.000   1.603E-01
    4.100   1.672E-01
    4.200   1.745E-01
    4.300   1.821E-01
    4.400   1.902E-01
    4.500   1.986E-01
    4.600   2.076E-01
    4.700   2.170E-01
    4.800   2.269E-01
    4.900   2.373E-01
    5.000   2.482E-01
    5.100   2.597E-01
    5.200   2.717E-01
    5.300   2.844E-01
    5.400   2.976E-01
    5.500   3.115E-01
    5.600   3.260E-01
    5.700   3.412E-01
    5.800   3.571E-01
    5.900   3.736E-01
    6.000   3.909E-01
    6.100   4.089E-01
    6.200   4.276E-01
    6.300   4.470E-01
    6.400   4.672E-01
    6.500   4.881E-01
    6.600   5.098E-01
    6.700   5.323E-01
    6.800   5.556E-01
    6.900   5.797E-01
    7.000   6.046E-01
    7.100   6.304E-01
    7.200   6.570E-01
    7.300   6.846E-01
    7.400   7.130E-01
    7.500   7.424E-01
    7.600   7.727E-01
    7.700   8.041E-01
    7.800   8.364E-01
    7.900   8.697E-01
    8.000   9.040E-01
    8.100   9.394E-01
    8.200   9.758E-01
    8.300   1.013E+00
    8.400   1.052E+00
    8.500   1.091E+00
    8.600   1.132E+00
    8.700   1.174E+00
    8.800   1.216E+00
    8.900   1.260E+00
    9.000   1.305E+00
    9.100   1.351E+00
    9.200   1.398E+00
    9.300   1.446E+00
    9.400   1.496E+00
    9.500   1.546E+00
    9.600   1.598E+00
    9.700   1.651E+00
    9.800   1.705E+00
    9.900   1.760E+00
   10.000   1.817E+00
   10.100   1.875E+00
   10.200   1.935E+00
   10.300   1.997E+00
   10.400   2.060E+00
   10.500   2.126E+00
   10.600   2.193E+00
   10.700   2.264E+00
   10.800   2.336E+00
   10.900   2.411E+00
   11.000   2.490E+00
   11.100   2.572E+00
   11.200   2.657E+00
   11.300   2.746E+00
   11.400   2.839E+00
   11.500   2.937E+00
   11.600   3.039E+00
   11.700   3.146E+00
   11.800   3.259E+00
   11.900   3.378E+00
   12.000   3.503E+00
   12.100   3.634E+00
   12.200   3.772E+00
   12.300   3.917E+00
   12.400   4.069E+00
   12.500   4.228E+00
   12.600   4.396E+00
   12.700   4.571E+00
   12.800   4.754E+00
   12.900   4.945E+00
   13.000   5.144E+00
   13.100   5.351E+00
   13.200   5.565E+00
   13.300   5.786E+00
   13.400   6.014E+00
   13.500   6.248E+00
   13.600   6.486E+00
   13.700   6.729E+00
   13.800   6.975E+00
   13.900   7.222E+00
   14.000   7.469E+00
   14.100   7.714E+00
   14.200   7.956E+00
   14.300   8.194E+00
   14.400   8.425E+00
   14.500   8.647E+00
   14.600   8.860E+00
   14.700   9.061E+00
   14.800   9.250E+00
   14.900   9.425E+00
   15.000   9.586E+00
   15.100   9.732E+00
   15.200   9.862E+00
   15.300   9.976E+00
   15.400   1.007E+01
   15.500   1.015E+01
   15.600   1.022E+01
   15.700   1.027E+01
   15.800   1.030E+01
   15.900   1.031E+01
   16.000   1.031E+01
   16.100   1.029E+01
   16.200   1.025E+01
   16.300   1.020E+01
   16.400   1.012E+01
   16.500   1.004E+01
   16.600   9.930E+00
   16.700   9.810E+00
   16.800   9.675E+00
   16.900   9.526E+00
   17.000   9.366E+00
   17.100   9.194E+00
   17.200   9.013E+00
   17.300   8.825E+00
   17.400   8.630E+00
   17.500   8.430E+00
   17.600   8.227E+00
   17.700   8.022E+00
   17.800   7.817E+00
   17.900   7.611E+00
   18.000   7.408E+00
   18.100   7.206E+00
   18.200   7.007E+00
   18.300   6.812E+00
   18.400   6.621E+00
   18.500   6.435E+00
   18.600   6.253E+00
   18.700   6.075E+00
   18.800   5.903E+00
   18.900   5.736E+00
   19.000   5.574E+00
   19.100   5.417E+00
   19.200   5.265E+00
   19.300   5.118E+00
   19.400   4.976E+00
   19.500   4.840E+00
   19.600   4.708E+00
   19.700   4.581E+00
   19.800   4.459E+00
   19.900   4.341E+00
   20.000   4.229E+00
   20.100   4.120E+00
   20.200   4.017E+00
   20.300   3.917E+00
   20.400   3.822E+00
   20.500   3.731E+00
   20.600   3.644E+00
   20.700   3.561E+00
   20.800   3.480E+00
   20.900   3.403E+00
   21.000   3.329E+00
   21.100   3.258E+00
   21.200   3.189E+00
   21.300   3.122E+00
   21.400   3.058E+00
   21.500   2.995E+00
   21.600   2.933E+00
   21.700   2.873E+00
   21.800   2.814E+00
   21.900   2.756E+00
   22.000   2.698E+00
   22.100   2.642E+00
   22.200   2.586E+00
   22.300   2.531E+00
   22.400   2.477E+00
   22.500   2.424E+00
   22.600   2.371E+00
   22.700   2.320E+00
   22.800   2.269E+00
   22.900   2.220E+00
   23.000   2.171E+00
   23.100   2.124E+00
   23.200   2.078E+00
   23.300   2.033E+00
   23.400   1.989E+00
   23.500   1.947E+00
   23.600   1.906E+00
   23.700   1.866E+00
   23.800   1.827E+00
   23.900   1.789E+00
   24.000   1.753E+00
   24.100   1.718E+00
   24.200   1.683E+00
   24.300   1.650E+00
   24.400   1.617E+00
   24.500   1.586E+00
   24.600   1.555E+00
   24.700   1.525E+00
   24.800   1.495E+00
   24.900   1.467E+00
   25.000   1.439E+00
   25.100   1.411E+00
   25.200   1.384E+00
   25.300   1.358E+00
   25.400   1.332E+00
   25.500   1.306E+00
   25.600   1.281E+00
   25.700   1.257E+00
   25.800   1.233E+00
   25.900   1.210E+00
   26.000   1.187E+00
   26.100   1.165E+00
   26.200   1.143E+00
   26.300   1.122E+00
   26.400   1.101E+00
   26.500   1.081E+00
   26.600   1.061E+00
   26.700   1.042E+00
   26.800   1.023E+00
   26.900   1.005E+00
   27.000   9.877E-01
   27.100   9.706E-01
   27.200   9.539E-01
   27.300   9.378E-01
   27.400   9.221E-01
   27.500   9.068E-01
   27.600   8.919E-01
   27.700   8.775E-01
   27.800   8.634E-01
   27.900   8.498E-01
   28.000   8.365E-01
   28.100   8.235E-01
   28.200   8.110E-01
   28.300   7.987E-01
   28.400   7.868E-01
   28.500   7.751E-01
   28.600   7.638E-01
   28.700   7.528E-01
   28.800   7.420E-01
   28.900   7.315E-01
   29.000   7.213E-01
   29.100   7.113E-01
   29.200   7.015E-01
   29.300   6.920E-01
   29.400   6.827E-01
   29.500   6.736E-01
   29.600   6.647E-01
   29.700   6.561E-01
   29.800   6.476E-01
   29.900   6.393E-01
   30.000   6.312E-01
 
 Z=  38 A=  93  D1M-QRPA-Inter
 E[MeV]  fQRPA[mb/MeV]
    0.100   1.450E-02
    0.200   3.948E-02
    0.300   6.097E-02
    0.400   7.714E-02
    0.500   8.895E-02
    0.600   9.756E-02
    0.700   1.039E-01
    0.800   1.087E-01
    0.900   1.123E-01
    1.000   1.152E-01
    1.100   1.175E-01
    1.200   1.194E-01
    1.300   1.210E-01
    1.400   1.225E-01
    1.500   1.238E-01
    1.600   1.251E-01
    1.700   1.264E-01
    1.800   1.276E-01
    1.900   1.289E-01
    2.000   1.303E-01
    2.100   1.318E-01
    2.200   1.333E-01
    2.300   1.350E-01
    2.400   1.369E-01
    2.500   1.388E-01
    2.600   1.410E-01
    2.700   1.433E-01
    2.800   1.459E-01
    2.900   1.486E-01
    3.000   1.516E-01
    3.100   1.548E-01
    3.200   1.582E-01
    3.300   1.619E-01
    3.400   1.659E-01
    3.500   1.702E-01
    3.600   1.747E-01
    3.700   1.796E-01
    3.800   1.849E-01
    3.900   1.904E-01
    4.000   1.964E-01
    4.100   2.027E-01
    4.200   2.094E-01
    4.300   2.166E-01
    4.400   2.242E-01
    4.500   2.323E-01
    4.600   2.408E-01
    4.700   2.498E-01
    4.800   2.594E-01
    4.900   2.695E-01
    5.000   2.802E-01
    5.100   2.915E-01
    5.200   3.035E-01
    5.300   3.160E-01
    5.400   3.292E-01
    5.500   3.431E-01
    5.600   3.578E-01
    5.700   3.731E-01
    5.800   3.892E-01
    5.900   4.060E-01
    6.000   4.236E-01
    6.100   4.420E-01
    6.200   4.611E-01
    6.300   4.811E-01
    6.400   5.018E-01
    6.500   5.233E-01
    6.600   5.456E-01
    6.700   5.687E-01
    6.800   5.926E-01
    6.900   6.174E-01
    7.000   6.429E-01
    7.100   6.693E-01
    7.200   6.966E-01
    7.300   7.247E-01
    7.400   7.538E-01
    7.500   7.838E-01
    7.600   8.148E-01
    7.700   8.469E-01
    7.800   8.800E-01
    7.900   9.143E-01
    8.000   9.498E-01
    8.100   9.865E-01
    8.200   1.025E+00
    8.300   1.064E+00
    8.400   1.104E+00
    8.500   1.147E+00
    8.600   1.190E+00
    8.700   1.235E+00
    8.800   1.281E+00
    8.900   1.329E+00
    9.000   1.379E+00
    9.100   1.429E+00
    9.200   1.482E+00
    9.300   1.536E+00
    9.400   1.592E+00
    9.500   1.649E+00
    9.600   1.708E+00
    9.700   1.769E+00
    9.800   1.831E+00
    9.900   1.895E+00
   10.000   1.961E+00
   10.100   2.029E+00
   10.200   2.100E+00
   10.300   2.172E+00
   10.400   2.247E+00
   10.500   2.324E+00
   10.600   2.404E+00
   10.700   2.487E+00
   10.800   2.573E+00
   10.900   2.662E+00
   11.000   2.755E+00
   11.100   2.852E+00
   11.200   2.954E+00
   11.300   3.060E+00
   11.400   3.171E+00
   11.500   3.287E+00
   11.600   3.410E+00
   11.700   3.538E+00
   11.800   3.672E+00
   11.900   3.814E+00
   12.000   3.962E+00
   12.100   4.119E+00
   12.200   4.282E+00
   12.300   4.454E+00
   12.400   4.635E+00
   12.500   4.824E+00
   12.600   5.021E+00
   12.700   5.226E+00
   12.800   5.441E+00
   12.900   5.663E+00
   13.000   5.892E+00
   13.100   6.129E+00
   13.200   6.372E+00
   13.300   6.620E+00
   13.400   6.872E+00
   13.500   7.127E+00
   13.600   7.384E+00
   13.700   7.640E+00
   13.800   7.895E+00
   13.900   8.145E+00
   14.000   8.390E+00
   14.100   8.627E+00
   14.200   8.856E+00
   14.300   9.073E+00
   14.400   9.277E+00
   14.500   9.467E+00
   14.600   9.642E+00
   14.700   9.802E+00
   14.800   9.944E+00
   14.900   1.007E+01
   15.000   1.018E+01
   15.100   1.027E+01
   15.200   1.034E+01
   15.300   1.039E+01
   15.400   1.043E+01
   15.500   1.045E+01
   15.600   1.046E+01
   15.700   1.044E+01
   15.800   1.041E+01
   15.900   1.037E+01
   16.000   1.031E+01
   16.100   1.023E+01
   16.200   1.014E+01
   16.300   1.003E+01
   16.400   9.914E+00
   16.500   9.780E+00
   16.600   9.633E+00
   16.700   9.475E+00
   16.800   9.306E+00
   16.900   9.128E+00
   17.000   8.943E+00
   17.100   8.751E+00
   17.200   8.554E+00
   17.300   8.353E+00
   17.400   8.151E+00
   17.500   7.947E+00
   17.600   7.744E+00
   17.700   7.542E+00
   17.800   7.342E+00
   17.900   7.145E+00
   18.000   6.952E+00
   18.100   6.762E+00
   18.200   6.578E+00
   18.300   6.398E+00
   18.400   6.222E+00
   18.500   6.052E+00
   18.600   5.887E+00
   18.700   5.727E+00
   18.800   5.572E+00
   18.900   5.421E+00
   19.000   5.275E+00
   19.100   5.133E+00
   19.200   4.994E+00
   19.300   4.860E+00
   19.400   4.729E+00
   19.500   4.602E+00
   19.600   4.478E+00
   19.700   4.357E+00
   19.800   4.240E+00
   19.900   4.125E+00
   20.000   4.014E+00
   20.100   3.905E+00
   20.200   3.800E+00
   20.300   3.697E+00
   20.400   3.598E+00
   20.500   3.502E+00
   20.600   3.409E+00
   20.700   3.319E+00
   20.800   3.231E+00
   20.900   3.147E+00
   21.000   3.066E+00
   21.100   2.987E+00
   21.200   2.911E+00
   21.300   2.838E+00
   21.400   2.767E+00
   21.500   2.698E+00
   21.600   2.631E+00
   21.700   2.567E+00
   21.800   2.504E+00
   21.900   2.444E+00
   22.000   2.385E+00
   22.100   2.327E+00
   22.200   2.272E+00
   22.300   2.218E+00
   22.400   2.165E+00
   22.500   2.114E+00
   22.600   2.065E+00
   22.700   2.016E+00
   22.800   1.970E+00
   22.900   1.924E+00
   23.000   1.881E+00
   23.100   1.838E+00
   23.200   1.797E+00
   23.300   1.757E+00
   23.400   1.718E+00
   23.500   1.681E+00
   23.600   1.645E+00
   23.700   1.610E+00
   23.800   1.576E+00
   23.900   1.544E+00
   24.000   1.512E+00
   24.100   1.481E+00
   24.200   1.452E+00
   24.300   1.423E+00
   24.400   1.395E+00
   24.500   1.368E+00
   24.600   1.341E+00
   24.700   1.316E+00
   24.800   1.291E+00
   24.900   1.267E+00
   25.000   1.243E+00
   25.100   1.220E+00
   25.200   1.198E+00
   25.300   1.176E+00
   25.400   1.154E+00
   25.500   1.133E+00
   25.600   1.113E+00
   25.700   1.093E+00
   25.800   1.074E+00
   25.900   1.055E+00
   26.000   1.036E+00
   26.100   1.018E+00
   26.200   1.001E+00
   26.300   9.834E-01
   26.400   9.667E-01
   26.500   9.504E-01
   26.600   9.345E-01
   26.700   9.191E-01
   26.800   9.040E-01
   26.900   8.893E-01
   27.000   8.751E-01
   27.100   8.611E-01
   27.200   8.476E-01
   27.300   8.344E-01
   27.400   8.215E-01
   27.500   8.090E-01
   27.600   7.968E-01
   27.700   7.849E-01
   27.800   7.732E-01
   27.900   7.619E-01
   28.000   7.509E-01
   28.100   7.401E-01
   28.200   7.296E-01
   28.300   7.194E-01
   28.400   7.093E-01
   28.500   6.996E-01
   28.600   6.900E-01
   28.700   6.807E-01
   28.800   6.716E-01
   28.900   6.627E-01
   29.000   6.540E-01
   29.100   6.455E-01
   29.200   6.371E-01
   29.300   6.290E-01
   29.400   6.210E-01
   29.500   6.132E-01
   29.600   6.056E-01
   29.700   5.981E-01
   29.800   5.908E-01
   29.900   5.837E-01
   30.000   5.766E-01
 
 Z=  38 A=  94  D1M-QRPA
   E[MeV]   fQRPA[mb/MeV]
    0.100   1.077E-02
    0.200   3.757E-02
    0.300   7.002E-02
    0.400   1.007E-01
    0.500   1.265E-01
    0.600   1.469E-01
    0.700   1.626E-01
    0.800   1.745E-01
    0.900   1.834E-01
    1.000   1.901E-01
    1.100   1.949E-01
    1.200   1.985E-01
    1.300   2.010E-01
    1.400   2.027E-01
    1.500   2.038E-01
    1.600   2.045E-01
    1.700   2.048E-01
    1.800   2.049E-01
    1.900   2.049E-01
    2.000   2.048E-01
    2.100   2.046E-01
    2.200   2.045E-01
    2.300   2.044E-01
    2.400   2.044E-01
    2.500   2.046E-01
    2.600   2.049E-01
    2.700   2.055E-01
    2.800   2.062E-01
    2.900   2.072E-01
    3.000   2.084E-01
    3.100   2.099E-01
    3.200   2.117E-01
    3.300   2.138E-01
    3.400   2.162E-01
    3.500   2.190E-01
    3.600   2.221E-01
    3.700   2.256E-01
    3.800   2.295E-01
    3.900   2.338E-01
    4.000   2.386E-01
    4.100   2.438E-01
    4.200   2.494E-01
    4.300   2.556E-01
    4.400   2.622E-01
    4.500   2.694E-01
    4.600   2.771E-01
    4.700   2.854E-01
    4.800   2.943E-01
    4.900   3.038E-01
    5.000   3.139E-01
    5.100   3.247E-01
    5.200   3.362E-01
    5.300   3.484E-01
    5.400   3.613E-01
    5.500   3.750E-01
    5.600   3.894E-01
    5.700   4.047E-01
    5.800   4.208E-01
    5.900   4.377E-01
    6.000   4.554E-01
    6.100   4.739E-01
    6.200   4.933E-01
    6.300   5.136E-01
    6.400   5.346E-01
    6.500   5.565E-01
    6.600   5.793E-01
    6.700   6.028E-01
    6.800   6.271E-01
    6.900   6.522E-01
    7.000   6.782E-01
    7.100   7.049E-01
    7.200   7.325E-01
    7.300   7.610E-01
    7.400   7.904E-01
    7.500   8.208E-01
    7.600   8.523E-01
    7.700   8.848E-01
    7.800   9.185E-01
    7.900   9.535E-01
    8.000   9.899E-01
    8.100   1.028E+00
    8.200   1.067E+00
    8.300   1.108E+00
    8.400   1.150E+00
    8.500   1.195E+00
    8.600   1.241E+00
    8.700   1.289E+00
    8.800   1.339E+00
    8.900   1.390E+00
    9.000   1.444E+00
    9.100   1.500E+00
    9.200   1.558E+00
    9.300   1.618E+00
    9.400   1.680E+00
    9.500   1.745E+00
    9.600   1.811E+00
    9.700   1.880E+00
    9.800   1.951E+00
    9.900   2.024E+00
   10.000   2.100E+00
   10.100   2.179E+00
   10.200   2.260E+00
   10.300   2.343E+00
   10.400   2.430E+00
   10.500   2.520E+00
   10.600   2.613E+00
   10.700   2.710E+00
   10.800   2.811E+00
   10.900   2.915E+00
   11.000   3.025E+00
   11.100   3.139E+00
   11.200   3.258E+00
   11.300   3.383E+00
   11.400   3.513E+00
   11.500   3.651E+00
   11.600   3.795E+00
   11.700   3.946E+00
   11.800   4.105E+00
   11.900   4.271E+00
   12.000   4.447E+00
   12.100   4.630E+00
   12.200   4.823E+00
   12.300   5.026E+00
   12.400   5.237E+00
   12.500   5.458E+00
   12.600   5.689E+00
   12.700   5.928E+00
   12.800   6.176E+00
   12.900   6.432E+00
   13.000   6.695E+00
   13.100   6.964E+00
   13.200   7.237E+00
   13.300   7.513E+00
   13.400   7.790E+00
   13.500   8.066E+00
   13.600   8.338E+00
   13.700   8.605E+00
   13.800   8.864E+00
   13.900   9.113E+00
   14.000   9.350E+00
   14.100   9.572E+00
   14.200   9.777E+00
   14.300   9.965E+00
   14.400   1.013E+01
   14.500   1.028E+01
   14.600   1.041E+01
   14.700   1.052E+01
   14.800   1.060E+01
   14.900   1.067E+01
   15.000   1.072E+01
   15.100   1.074E+01
   15.200   1.075E+01
   15.300   1.074E+01
   15.400   1.071E+01
   15.500   1.067E+01
   15.600   1.061E+01
   15.700   1.054E+01
   15.800   1.045E+01
   15.900   1.034E+01
   16.000   1.023E+01
   16.100   1.009E+01
   16.200   9.952E+00
   16.300   9.796E+00
   16.400   9.630E+00
   16.500   9.455E+00
   16.600   9.270E+00
   16.700   9.078E+00
   16.800   8.880E+00
   16.900   8.677E+00
   17.000   8.470E+00
   17.100   8.262E+00
   17.200   8.053E+00
   17.300   7.844E+00
   17.400   7.637E+00
   17.500   7.432E+00
   17.600   7.231E+00
   17.700   7.033E+00
   17.800   6.841E+00
   17.900   6.653E+00
   18.000   6.471E+00
   18.100   6.295E+00
   18.200   6.125E+00
   18.300   5.960E+00
   18.400   5.801E+00
   18.500   5.647E+00
   18.600   5.499E+00
   18.700   5.356E+00
   18.800   5.217E+00
   18.900   5.082E+00
   19.000   4.952E+00
   19.100   4.824E+00
   19.200   4.700E+00
   19.300   4.578E+00
   19.400   4.459E+00
   19.500   4.341E+00
   19.600   4.225E+00
   19.700   4.111E+00
   19.800   3.999E+00
   19.900   3.888E+00
   20.000   3.779E+00
   20.100   3.671E+00
   20.200   3.566E+00
   20.300   3.462E+00
   20.400   3.360E+00
   20.500   3.260E+00
   20.600   3.163E+00
   20.700   3.068E+00
   20.800   2.976E+00
   20.900   2.887E+00
   21.000   2.800E+00
   21.100   2.717E+00
   21.200   2.636E+00
   21.300   2.558E+00
   21.400   2.483E+00
   21.500   2.411E+00
   21.600   2.342E+00
   21.700   2.275E+00
   21.800   2.211E+00
   21.900   2.149E+00
   22.000   2.091E+00
   22.100   2.034E+00
   22.200   1.980E+00
   22.300   1.927E+00
   22.400   1.877E+00
   22.500   1.829E+00
   22.600   1.783E+00
   22.700   1.739E+00
   22.800   1.696E+00
   22.900   1.655E+00
   23.000   1.616E+00
   23.100   1.578E+00
   23.200   1.542E+00
   23.300   1.506E+00
   23.400   1.473E+00
   23.500   1.440E+00
   23.600   1.409E+00
   23.700   1.378E+00
   23.800   1.349E+00
   23.900   1.321E+00
   24.000   1.294E+00
   24.100   1.267E+00
   24.200   1.242E+00
   24.300   1.217E+00
   24.400   1.193E+00
   24.500   1.170E+00
   24.600   1.148E+00
   24.700   1.126E+00
   24.800   1.105E+00
   24.900   1.085E+00
   25.000   1.065E+00
   25.100   1.046E+00
   25.200   1.028E+00
   25.300   1.010E+00
   25.400   9.923E-01
   25.500   9.754E-01
   25.600   9.588E-01
   25.700   9.428E-01
   25.800   9.272E-01
   25.900   9.120E-01
   26.000   8.973E-01
   26.100   8.829E-01
   26.200   8.689E-01
   26.300   8.553E-01
   26.400   8.420E-01
   26.500   8.291E-01
   26.600   8.165E-01
   26.700   8.042E-01
   26.800   7.922E-01
   26.900   7.805E-01
   27.000   7.691E-01
   27.100   7.579E-01
   27.200   7.471E-01
   27.300   7.364E-01
   27.400   7.261E-01
   27.500   7.159E-01
   27.600   7.061E-01
   27.700   6.964E-01
   27.800   6.869E-01
   27.900   6.777E-01
   28.000   6.686E-01
   28.100   6.598E-01
   28.200   6.512E-01
   28.300   6.427E-01
   28.400   6.344E-01
   28.500   6.263E-01
   28.600   6.184E-01
   28.700   6.106E-01
   28.800   6.030E-01
   28.900   5.955E-01
   29.000   5.882E-01
   29.100   5.811E-01
   29.200   5.740E-01
   29.300   5.672E-01
   29.400   5.604E-01
   29.500   5.538E-01
   29.600   5.473E-01
   29.700   5.410E-01
   29.800   5.347E-01
   29.900   5.286E-01
   30.000   5.226E-01
 
 Z=  38 A=  95  D1M-QRPA-Inter
 E[MeV]  fQRPA[mb/MeV]
    0.100   4.544E-03
    0.200   1.688E-02
    0.300   3.426E-02
    0.400   5.411E-02
    0.500   7.464E-02
    0.600   9.478E-02
    0.700   1.139E-01
    0.800   1.318E-01
    0.900   1.482E-01
    1.000   1.632E-01
    1.100   1.767E-01
    1.200   1.889E-01
    1.300   1.998E-01
    1.400   2.095E-01
    1.500   2.182E-01
    1.600   2.259E-01
    1.700   2.327E-01
    1.800   2.388E-01
    1.900   2.442E-01
    2.000   2.491E-01
    2.100   2.535E-01
    2.200   2.576E-01
    2.300   2.613E-01
    2.400   2.648E-01
    2.500   2.681E-01
    2.600   2.713E-01
    2.700   2.745E-01
    2.800   2.777E-01
    2.900   2.809E-01
    3.000   2.842E-01
    3.100   2.876E-01
    3.200   2.913E-01
    3.300   2.951E-01
    3.400   2.992E-01
    3.500   3.035E-01
    3.600   3.081E-01
    3.700   3.131E-01
    3.800   3.184E-01
    3.900   3.241E-01
    4.000   3.302E-01
    4.100   3.368E-01
    4.200   3.438E-01
    4.300   3.512E-01
    4.400   3.592E-01
    4.500   3.678E-01
    4.600   3.768E-01
    4.700   3.865E-01
    4.800   3.968E-01
    4.900   4.076E-01
    5.000   4.192E-01
    5.100   4.314E-01
    5.200   4.444E-01
    5.300   4.580E-01
    5.400   4.724E-01
    5.500   4.876E-01
    5.600   5.036E-01
    5.700   5.205E-01
    5.800   5.381E-01
    5.900   5.566E-01
    6.000   5.760E-01
    6.100   5.963E-01
    6.200   6.175E-01
    6.300   6.395E-01
    6.400   6.625E-01
    6.500   6.865E-01
    6.600   7.113E-01
    6.700   7.371E-01
    6.800   7.639E-01
    6.900   7.916E-01
    7.000   8.203E-01
    7.100   8.500E-01
    7.200   8.807E-01
    7.300   9.125E-01
    7.400   9.454E-01
    7.500   9.794E-01
    7.600   1.015E+00
    7.700   1.051E+00
    7.800   1.089E+00
    7.900   1.128E+00
    8.000   1.169E+00
    8.100   1.211E+00
    8.200   1.255E+00
    8.300   1.300E+00
    8.400   1.348E+00
    8.500   1.397E+00
    8.600   1.447E+00
    8.700   1.500E+00
    8.800   1.555E+00
    8.900   1.612E+00
    9.000   1.671E+00
    9.100   1.732E+00
    9.200   1.795E+00
    9.300   1.861E+00
    9.400   1.929E+00
    9.500   1.999E+00
    9.600   2.072E+00
    9.700   2.147E+00
    9.800   2.225E+00
    9.900   2.306E+00
   10.000   2.389E+00
   10.100   2.476E+00
   10.200   2.565E+00
   10.300   2.658E+00
   10.400   2.754E+00
   10.500   2.853E+00
   10.600   2.956E+00
   10.700   3.062E+00
   10.800   3.173E+00
   10.900   3.288E+00
   11.000   3.407E+00
   11.100   3.531E+00
   11.200   3.659E+00
   11.300   3.793E+00
   11.400   3.932E+00
   11.500   4.076E+00
   11.600   4.227E+00
   11.700   4.383E+00
   11.800   4.545E+00
   11.900   4.714E+00
   12.000   4.889E+00
   12.100   5.072E+00
   12.200   5.260E+00
   12.300   5.456E+00
   12.400   5.658E+00
   12.500   5.867E+00
   12.600   6.082E+00
   12.700   6.303E+00
   12.800   6.529E+00
   12.900   6.761E+00
   13.000   6.996E+00
   13.100   7.235E+00
   13.200   7.476E+00
   13.300   7.718E+00
   13.400   7.960E+00
   13.500   8.200E+00
   13.600   8.437E+00
   13.700   8.668E+00
   13.800   8.894E+00
   13.900   9.111E+00
   14.000   9.319E+00
   14.100   9.515E+00
   14.200   9.699E+00
   14.300   9.870E+00
   14.400   1.003E+01
   14.500   1.017E+01
   14.600   1.029E+01
   14.700   1.040E+01
   14.800   1.049E+01
   14.900   1.057E+01
   15.000   1.063E+01
   15.100   1.067E+01
   15.200   1.070E+01
   15.300   1.071E+01
   15.400   1.071E+01
   15.500   1.069E+01
   15.600   1.066E+01
   15.700   1.061E+01
   15.800   1.055E+01
   15.900   1.048E+01
   16.000   1.039E+01
   16.100   1.029E+01
   16.200   1.018E+01
   16.300   1.006E+01
   16.400   9.932E+00
   16.500   9.791E+00
   16.600   9.641E+00
   16.700   9.483E+00
   16.800   9.319E+00
   16.900   9.148E+00
   17.000   8.973E+00
   17.100   8.793E+00
   17.200   8.611E+00
   17.300   8.426E+00
   17.400   8.241E+00
   17.500   8.055E+00
   17.600   7.870E+00
   17.700   7.686E+00
   17.800   7.503E+00
   17.900   7.323E+00
   18.000   7.146E+00
   18.100   6.972E+00
   18.200   6.801E+00
   18.300   6.633E+00
   18.400   6.470E+00
   18.500   6.310E+00
   18.600   6.154E+00
   18.700   6.001E+00
   18.800   5.852E+00
   18.900   5.707E+00
   19.000   5.565E+00
   19.100   5.427E+00
   19.200   5.291E+00
   19.300   5.159E+00
   19.400   5.029E+00
   19.500   4.902E+00
   19.600   4.777E+00
   19.700   4.655E+00
   19.800   4.535E+00
   19.900   4.417E+00
   20.000   4.302E+00
   20.100   4.190E+00
   20.200   4.080E+00
   20.300   3.972E+00
   20.400   3.867E+00
   20.500   3.764E+00
   20.600   3.665E+00
   20.700   3.567E+00
   20.800   3.473E+00
   20.900   3.382E+00
   21.000   3.293E+00
   21.100   3.207E+00
   21.200   3.124E+00
   21.300   3.043E+00
   21.400   2.965E+00
   21.500   2.890E+00
   21.600   2.818E+00
   21.700   2.748E+00
   21.800   2.680E+00
   21.900   2.615E+00
   22.000   2.553E+00
   22.100   2.492E+00
   22.200   2.433E+00
   22.300   2.377E+00
   22.400   2.323E+00
   22.500   2.270E+00
   22.600   2.219E+00
   22.700   2.170E+00
   22.800   2.123E+00
   22.900   2.077E+00
   23.000   2.033E+00
   23.100   1.991E+00
   23.200   1.949E+00
   23.300   1.909E+00
   23.400   1.871E+00
   23.500   1.833E+00
   23.600   1.797E+00
   23.700   1.762E+00
   23.800   1.728E+00
   23.900   1.695E+00
   24.000   1.663E+00
   24.100   1.632E+00
   24.200   1.602E+00
   24.300   1.573E+00
   24.400   1.545E+00
   24.500   1.518E+00
   24.600   1.491E+00
   24.700   1.465E+00
   24.800   1.440E+00
   24.900   1.415E+00
   25.000   1.391E+00
   25.100   1.368E+00
   25.200   1.346E+00
   25.300   1.324E+00
   25.400   1.302E+00
   25.500   1.282E+00
   25.600   1.261E+00
   25.700   1.242E+00
   25.800   1.222E+00
   25.900   1.204E+00
   26.000   1.185E+00
   26.100   1.167E+00
   26.200   1.150E+00
   26.300   1.133E+00
   26.400   1.116E+00
   26.500   1.100E+00
   26.600   1.084E+00
   26.700   1.069E+00
   26.800   1.054E+00
   26.900   1.039E+00
   27.000   1.025E+00
   27.100   1.010E+00
   27.200   9.967E-01
   27.300   9.832E-01
   27.400   9.701E-01
   27.500   9.572E-01
   27.600   9.445E-01
   27.700   9.322E-01
   27.800   9.201E-01
   27.900   9.083E-01
   28.000   8.967E-01
   28.100   8.853E-01
   28.200   8.742E-01
   28.300   8.633E-01
   28.400   8.527E-01
   28.500   8.422E-01
   28.600   8.319E-01
   28.700   8.219E-01
   28.800   8.120E-01
   28.900   8.024E-01
   29.000   7.929E-01
   29.100   7.836E-01
   29.200   7.745E-01
   29.300   7.655E-01
   29.400   7.568E-01
   29.500   7.481E-01
   29.600   7.397E-01
   29.700   7.314E-01
   29.800   7.232E-01
   29.900   7.152E-01
   30.000   7.074E-01
 
 Z=  38 A=  96  D1M-QRPA
   E[MeV]   fQRPA[mb/MeV]
    0.100   1.860E-03
    0.200   7.360E-03
    0.300   1.627E-02
    0.400   2.821E-02
    0.500   4.273E-02
    0.600   5.932E-02
    0.700   7.743E-02
    0.800   9.654E-02
    0.900   1.162E-01
    1.000   1.359E-01
    1.100   1.554E-01
    1.200   1.744E-01
    1.300   1.927E-01
    1.400   2.101E-01
    1.500   2.266E-01
    1.600   2.421E-01
    1.700   2.565E-01
    1.800   2.700E-01
    1.900   2.824E-01
    2.000   2.940E-01
    2.100   3.048E-01
    2.200   3.147E-01
    2.300   3.240E-01
    2.400   3.327E-01
    2.500   3.408E-01
    2.600   3.485E-01
    2.700   3.558E-01
    2.800   3.627E-01
    2.900   3.695E-01
    3.000   3.760E-01
    3.100   3.824E-01
    3.200   3.888E-01
    3.300   3.951E-01
    3.400   4.015E-01
    3.500   4.080E-01
    3.600   4.146E-01
    3.700   4.214E-01
    3.800   4.285E-01
    3.900   4.358E-01
    4.000   4.434E-01
    4.100   4.513E-01
    4.200   4.596E-01
    4.300   4.683E-01
    4.400   4.774E-01
    4.500   4.870E-01
    4.600   4.971E-01
    4.700   5.078E-01
    4.800   5.190E-01
    4.900   5.307E-01
    5.000   5.431E-01
    5.100   5.561E-01
    5.200   5.698E-01
    5.300   5.842E-01
    5.400   5.993E-01
    5.500   6.152E-01
    5.600   6.319E-01
    5.700   6.493E-01
    5.800   6.676E-01
    5.900   6.868E-01
    6.000   7.068E-01
    6.100   7.278E-01
    6.200   7.497E-01
    6.300   7.726E-01
    6.400   7.965E-01
    6.500   8.214E-01
    6.600   8.474E-01
    6.700   8.745E-01
    6.800   9.027E-01
    6.900   9.320E-01
    7.000   9.625E-01
    7.100   9.942E-01
    7.200   1.027E+00
    7.300   1.061E+00
    7.400   1.097E+00
    7.500   1.134E+00
    7.600   1.172E+00
    7.700   1.211E+00
    7.800   1.253E+00
    7.900   1.295E+00
    8.000   1.339E+00
    8.100   1.385E+00
    8.200   1.432E+00
    8.300   1.481E+00
    8.400   1.531E+00
    8.500   1.584E+00
    8.600   1.638E+00
    8.700   1.694E+00
    8.800   1.752E+00
    8.900   1.812E+00
    9.000   1.875E+00
    9.100   1.939E+00
    9.200   2.006E+00
    9.300   2.075E+00
    9.400   2.147E+00
    9.500   2.222E+00
    9.600   2.299E+00
    9.700   2.379E+00
    9.800   2.462E+00
    9.900   2.548E+00
   10.000   2.637E+00
   10.100   2.729E+00
   10.200   2.825E+00
   10.300   2.924E+00
   10.400   3.027E+00
   10.500   3.133E+00
   10.600   3.243E+00
   10.700   3.357E+00
   10.800   3.475E+00
   10.900   3.597E+00
   11.000   3.723E+00
   11.100   3.853E+00
   11.200   3.987E+00
   11.300   4.126E+00
   11.400   4.269E+00
   11.500   4.416E+00
   11.600   4.567E+00
   11.700   4.723E+00
   11.800   4.883E+00
   11.900   5.047E+00
   12.000   5.216E+00
   12.100   5.388E+00
   12.200   5.565E+00
   12.300   5.746E+00
   12.400   5.930E+00
   12.500   6.117E+00
   12.600   6.308E+00
   12.700   6.501E+00
   12.800   6.696E+00
   12.900   6.894E+00
   13.000   7.093E+00
   13.100   7.293E+00
   13.200   7.493E+00
   13.300   7.693E+00
   13.400   7.891E+00
   13.500   8.087E+00
   13.600   8.281E+00
   13.700   8.471E+00
   13.800   8.656E+00
   13.900   8.836E+00
   14.000   9.010E+00
   14.100   9.176E+00
   14.200   9.334E+00
   14.300   9.484E+00
   14.400   9.623E+00
   14.500   9.753E+00
   14.600   9.871E+00
   14.700   9.978E+00
   14.800   1.007E+01
   14.900   1.016E+01
   15.000   1.023E+01
   15.100   1.028E+01
   15.200   1.033E+01
   15.300   1.036E+01
   15.400   1.038E+01
   15.500   1.039E+01
   15.600   1.038E+01
   15.700   1.037E+01
   15.800   1.034E+01
   15.900   1.030E+01
   16.000   1.024E+01
   16.100   1.018E+01
   16.200   1.011E+01
   16.300   1.003E+01
   16.400   9.936E+00
   16.500   9.836E+00
   16.600   9.727E+00
   16.700   9.611E+00
   16.800   9.487E+00
   16.900   9.357E+00
   17.000   9.220E+00
   17.100   9.079E+00
   17.200   8.932E+00
   17.300   8.781E+00
   17.400   8.627E+00
   17.500   8.469E+00
   17.600   8.309E+00
   17.700   8.147E+00
   17.800   7.984E+00
   17.900   7.820E+00
   18.000   7.655E+00
   18.100   7.490E+00
   18.200   7.326E+00
   18.300   7.162E+00
   18.400   7.000E+00
   18.500   6.839E+00
   18.600   6.680E+00
   18.700   6.524E+00
   18.800   6.369E+00
   18.900   6.217E+00
   19.000   6.068E+00
   19.100   5.922E+00
   19.200   5.779E+00
   19.300   5.639E+00
   19.400   5.503E+00
   19.500   5.369E+00
   19.600   5.239E+00
   19.700   5.112E+00
   19.800   4.989E+00
   19.900   4.869E+00
   20.000   4.752E+00
   20.100   4.639E+00
   20.200   4.528E+00
   20.300   4.421E+00
   20.400   4.317E+00
   20.500   4.217E+00
   20.600   4.119E+00
   20.700   4.024E+00
   20.800   3.932E+00
   20.900   3.843E+00
   21.000   3.756E+00
   21.100   3.672E+00
   21.200   3.591E+00
   21.300   3.512E+00
   21.400   3.436E+00
   21.500   3.362E+00
   21.600   3.290E+00
   21.700   3.220E+00
   21.800   3.153E+00
   21.900   3.087E+00
   22.000   3.023E+00
   22.100   2.962E+00
   22.200   2.902E+00
   22.300   2.844E+00
   22.400   2.788E+00
   22.500   2.733E+00
   22.600   2.680E+00
   22.700   2.628E+00
   22.800   2.578E+00
   22.900   2.529E+00
   23.000   2.482E+00
   23.100   2.436E+00
   23.200   2.391E+00
   23.300   2.348E+00
   23.400   2.306E+00
   23.500   2.265E+00
   23.600   2.225E+00
   23.700   2.186E+00
   23.800   2.148E+00
   23.900   2.111E+00
   24.000   2.075E+00
   24.100   2.040E+00
   24.200   2.006E+00
   24.300   1.973E+00
   24.400   1.941E+00
   24.500   1.909E+00
   24.600   1.878E+00
   24.700   1.848E+00
   24.800   1.819E+00
   24.900   1.791E+00
   25.000   1.763E+00
   25.100   1.736E+00
   25.200   1.709E+00
   25.300   1.684E+00
   25.400   1.658E+00
   25.500   1.634E+00
   25.600   1.610E+00
   25.700   1.586E+00
   25.800   1.563E+00
   25.900   1.541E+00
   26.000   1.519E+00
   26.100   1.497E+00
   26.200   1.476E+00
   26.300   1.456E+00
   26.400   1.436E+00
   26.500   1.416E+00
   26.600   1.397E+00
   26.700   1.378E+00
   26.800   1.360E+00
   26.900   1.342E+00
   27.000   1.324E+00
   27.100   1.307E+00
   27.200   1.290E+00
   27.300   1.273E+00
   27.400   1.257E+00
   27.500   1.241E+00
   27.600   1.226E+00
   27.700   1.211E+00
   27.800   1.196E+00
   27.900   1.181E+00
   28.000   1.167E+00
   28.100   1.152E+00
   28.200   1.139E+00
   28.300   1.125E+00
   28.400   1.112E+00
   28.500   1.099E+00
   28.600   1.086E+00
   28.700   1.073E+00
   28.800   1.061E+00
   28.900   1.049E+00
   29.000   1.037E+00
   29.100   1.025E+00
   29.200   1.014E+00
   29.300   1.002E+00
   29.400   9.914E-01
   29.500   9.805E-01
   29.600   9.698E-01
   29.700   9.593E-01
   29.800   9.490E-01
   29.900   9.388E-01
   30.000   9.288E-01
 
 Z=  38 A=  97  D1M-QRPA-Inter
 E[MeV]  fQRPA[mb/MeV]
    0.100   1.001E-03
    0.200   3.974E-03
    0.300   8.828E-03
    0.400   1.542E-02
    0.500   2.356E-02
    0.600   3.303E-02
    0.700   4.360E-02
    0.800   5.503E-02
    0.900   6.708E-02
    1.000   7.956E-02
    1.100   9.224E-02
    1.200   1.050E-01
    1.300   1.176E-01
    1.400   1.300E-01
    1.500   1.421E-01
    1.600   1.539E-01
    1.700   1.652E-01
    1.800   1.761E-01
    1.900   1.865E-01
    2.000   1.964E-01
    2.100   2.060E-01
    2.200   2.151E-01
    2.300   2.238E-01
    2.400   2.322E-01
    2.500   2.403E-01
    2.600   2.481E-01
    2.700   2.557E-01
    2.800   2.632E-01
    2.900   2.705E-01
    3.000   2.777E-01
    3.100   2.849E-01
    3.200   2.921E-01
    3.300   2.993E-01
    3.400   3.067E-01
    3.500   3.141E-01
    3.600   3.217E-01
    3.700   3.295E-01
    3.800   3.376E-01
    3.900   3.458E-01
    4.000   3.544E-01
    4.100   3.633E-01
    4.200   3.726E-01
    4.300   3.823E-01
    4.400   3.923E-01
    4.500   4.028E-01
    4.600   4.138E-01
    4.700   4.252E-01
    4.800   4.372E-01
    4.900   4.497E-01
    5.000   4.628E-01
    5.100   4.765E-01
    5.200   4.908E-01
    5.300   5.058E-01
    5.400   5.215E-01
    5.500   5.378E-01
    5.600   5.549E-01
    5.700   5.728E-01
    5.800   5.915E-01
    5.900   6.110E-01
    6.000   6.314E-01
    6.100   6.526E-01
    6.200   6.748E-01
    6.300   6.979E-01
    6.400   7.220E-01
    6.500   7.470E-01
    6.600   7.732E-01
    6.700   8.004E-01
    6.800   8.287E-01
    6.900   8.582E-01
    7.000   8.889E-01
    7.100   9.207E-01
    7.200   9.539E-01
    7.300   9.883E-01
    7.400   1.024E+00
    7.500   1.061E+00
    7.600   1.100E+00
    7.700   1.140E+00
    7.800   1.181E+00
    7.900   1.224E+00
    8.000   1.269E+00
    8.100   1.316E+00
    8.200   1.364E+00
    8.300   1.414E+00
    8.400   1.466E+00
    8.500   1.520E+00
    8.600   1.575E+00
    8.700   1.633E+00
    8.800   1.693E+00
    8.900   1.756E+00
    9.000   1.821E+00
    9.100   1.888E+00
    9.200   1.958E+00
    9.300   2.030E+00
    9.400   2.105E+00
    9.500   2.183E+00
    9.600   2.264E+00
    9.700   2.349E+00
    9.800   2.436E+00
    9.900   2.527E+00
   10.000   2.621E+00
   10.100   2.718E+00
   10.200   2.819E+00
   10.300   2.924E+00
   10.400   3.033E+00
   10.500   3.145E+00
   10.600   3.262E+00
   10.700   3.382E+00
   10.800   3.507E+00
   10.900   3.636E+00
   11.000   3.768E+00
   11.100   3.905E+00
   11.200   4.046E+00
   11.300   4.191E+00
   11.400   4.340E+00
   11.500   4.492E+00
   11.600   4.648E+00
   11.700   4.808E+00
   11.800   4.971E+00
   11.900   5.137E+00
   12.000   5.305E+00
   12.100   5.477E+00
   12.200   5.650E+00
   12.300   5.824E+00
   12.400   6.001E+00
   12.500   6.178E+00
   12.600   6.355E+00
   12.700   6.532E+00
   12.800   6.709E+00
   12.900   6.885E+00
   13.000   7.060E+00
   13.100   7.232E+00
   13.200   7.402E+00
   13.300   7.569E+00
   13.400   7.733E+00
   13.500   7.893E+00
   13.600   8.049E+00
   13.700   8.200E+00
   13.800   8.346E+00
   13.900   8.486E+00
   14.000   8.621E+00
   14.100   8.749E+00
   14.200   8.871E+00
   14.300   8.986E+00
   14.400   9.094E+00
   14.500   9.195E+00
   14.600   9.287E+00
   14.700   9.372E+00
   14.800   9.448E+00
   14.900   9.515E+00
   15.000   9.574E+00
   15.100   9.623E+00
   15.200   9.663E+00
   15.300   9.694E+00
   15.400   9.714E+00
   15.500   9.725E+00
   15.600   9.725E+00
   15.700   9.715E+00
   15.800   9.695E+00
   15.900   9.664E+00
   16.000   9.623E+00
   16.100   9.571E+00
   16.200   9.510E+00
   16.300   9.438E+00
   16.400   9.356E+00
   16.500   9.265E+00
   16.600   9.165E+00
   16.700   9.056E+00
   16.800   8.939E+00
   16.900   8.814E+00
   17.000   8.682E+00
   17.100   8.544E+00
   17.200   8.400E+00
   17.300   8.250E+00
   17.400   8.097E+00
   17.500   7.939E+00
   17.600   7.779E+00
   17.700   7.617E+00
   17.800   7.453E+00
   17.900   7.287E+00
   18.000   7.122E+00
   18.100   6.957E+00
   18.200   6.792E+00
   18.300   6.629E+00
   18.400   6.467E+00
   18.500   6.307E+00
   18.600   6.150E+00
   18.700   5.995E+00
   18.800   5.843E+00
   18.900   5.694E+00
   19.000   5.548E+00
   19.100   5.406E+00
   19.200   5.267E+00
   19.300   5.132E+00
   19.400   5.000E+00
   19.500   4.872E+00
   19.600   4.747E+00
   19.700   4.626E+00
   19.800   4.509E+00
   19.900   4.395E+00
   20.000   4.285E+00
   20.100   4.178E+00
   20.200   4.074E+00
   20.300   3.974E+00
   20.400   3.877E+00
   20.500   3.783E+00
   20.600   3.692E+00
   20.700   3.604E+00
   20.800   3.518E+00
   20.900   3.436E+00
   21.000   3.356E+00
   21.100   3.279E+00
   21.200   3.204E+00
   21.300   3.132E+00
   21.400   3.062E+00
   21.500   2.994E+00
   21.600   2.929E+00
   21.700   2.865E+00
   21.800   2.803E+00
   21.900   2.744E+00
   22.000   2.686E+00
   22.100   2.630E+00
   22.200   2.576E+00
   22.300   2.523E+00
   22.400   2.472E+00
   22.500   2.423E+00
   22.600   2.375E+00
   22.700   2.329E+00
   22.800   2.283E+00
   22.900   2.240E+00
   23.000   2.197E+00
   23.100   2.156E+00
   23.200   2.116E+00
   23.300   2.077E+00
   23.400   2.039E+00
   23.500   2.002E+00
   23.600   1.966E+00
   23.700   1.931E+00
   23.800   1.898E+00
   23.900   1.865E+00
   24.000   1.833E+00
   24.100   1.801E+00
   24.200   1.771E+00
   24.300   1.741E+00
   24.400   1.713E+00
   24.500   1.685E+00
   24.600   1.657E+00
   24.700   1.631E+00
   24.800   1.605E+00
   24.900   1.579E+00
   25.000   1.555E+00
   25.100   1.530E+00
   25.200   1.507E+00
   25.300   1.484E+00
   25.400   1.462E+00
   25.500   1.440E+00
   25.600   1.418E+00
   25.700   1.398E+00
   25.800   1.377E+00
   25.900   1.357E+00
   26.000   1.338E+00
   26.100   1.319E+00
   26.200   1.300E+00
   26.300   1.282E+00
   26.400   1.264E+00
   26.500   1.247E+00
   26.600   1.230E+00
   26.700   1.213E+00
   26.800   1.197E+00
   26.900   1.181E+00
   27.000   1.166E+00
   27.100   1.150E+00
   27.200   1.135E+00
   27.300   1.121E+00
   27.400   1.106E+00
   27.500   1.092E+00
   27.600   1.079E+00
   27.700   1.065E+00
   27.800   1.052E+00
   27.900   1.039E+00
   28.000   1.026E+00
   28.100   1.014E+00
   28.200   1.002E+00
   28.300   9.897E-01
   28.400   9.779E-01
   28.500   9.664E-01
   28.600   9.551E-01
   28.700   9.440E-01
   28.800   9.331E-01
   28.900   9.224E-01
   29.000   9.119E-01
   29.100   9.016E-01
   29.200   8.915E-01
   29.300   8.816E-01
   29.400   8.718E-01
   29.500   8.622E-01
   29.600   8.528E-01
   29.700   8.435E-01
   29.800   8.344E-01
   29.900   8.255E-01
   30.000   8.167E-01
 
 Z=  38 A=  98  D1M-QRPA
   E[MeV]   fQRPA[mb/MeV]
    0.100   5.328E-04
    0.200   2.121E-03
    0.300   4.736E-03
    0.400   8.328E-03
    0.500   1.283E-02
    0.600   1.818E-02
    0.700   2.426E-02
    0.800   3.100E-02
    0.900   3.829E-02
    1.000   4.602E-02
    1.100   5.410E-02
    1.200   6.243E-02
    1.300   7.093E-02
    1.400   7.951E-02
    1.500   8.811E-02
    1.600   9.667E-02
    1.700   1.051E-01
    1.800   1.135E-01
    1.900   1.217E-01
    2.000   1.297E-01
    2.100   1.376E-01
    2.200   1.453E-01
    2.300   1.528E-01
    2.400   1.602E-01
    2.500   1.674E-01
    2.600   1.746E-01
    2.700   1.817E-01
    2.800   1.887E-01
    2.900   1.957E-01
    3.000   2.027E-01
    3.100   2.098E-01
    3.200   2.169E-01
    3.300   2.241E-01
    3.400   2.315E-01
    3.500   2.390E-01
    3.600   2.467E-01
    3.700   2.546E-01
    3.800   2.628E-01
    3.900   2.713E-01
    4.000   2.800E-01
    4.100   2.891E-01
    4.200   2.986E-01
    4.300   3.084E-01
    4.400   3.186E-01
    4.500   3.293E-01
    4.600   3.404E-01
    4.700   3.519E-01
    4.800   3.640E-01
    4.900   3.766E-01
    5.000   3.898E-01
    5.100   4.035E-01
    5.200   4.178E-01
    5.300   4.328E-01
    5.400   4.484E-01
    5.500   4.647E-01
    5.600   4.817E-01
    5.700   4.995E-01
    5.800   5.180E-01
    5.900   5.373E-01
    6.000   5.574E-01
    6.100   5.784E-01
    6.200   6.002E-01
    6.300   6.230E-01
    6.400   6.468E-01
    6.500   6.715E-01
    6.600   6.973E-01
    6.700   7.241E-01
    6.800   7.520E-01
    6.900   7.811E-01
    7.000   8.113E-01
    7.100   8.428E-01
    7.200   8.755E-01
    7.300   9.095E-01
    7.400   9.449E-01
    7.500   9.818E-01
    7.600   1.020E+00
    7.700   1.060E+00
    7.800   1.101E+00
    7.900   1.144E+00
    8.000   1.189E+00
    8.100   1.236E+00
    8.200   1.284E+00
    8.300   1.334E+00
    8.400   1.387E+00
    8.500   1.441E+00
    8.600   1.498E+00
    8.700   1.557E+00
    8.800   1.618E+00
    8.900   1.682E+00
    9.000   1.748E+00
    9.100   1.817E+00
    9.200   1.888E+00
    9.300   1.963E+00
    9.400   2.040E+00
    9.500   2.121E+00
    9.600   2.205E+00
    9.700   2.292E+00
    9.800   2.382E+00
    9.900   2.476E+00
   10.000   2.574E+00
   10.100   2.675E+00
   10.200   2.781E+00
   10.300   2.890E+00
   10.400   3.003E+00
   10.500   3.120E+00
   10.600   3.242E+00
   10.700   3.368E+00
   10.800   3.498E+00
   10.900   3.632E+00
   11.000   3.770E+00
   11.100   3.912E+00
   11.200   4.058E+00
   11.300   4.207E+00
   11.400   4.361E+00
   11.500   4.517E+00
   11.600   4.676E+00
   11.700   4.838E+00
   11.800   5.002E+00
   11.900   5.167E+00
   12.000   5.334E+00
   12.100   5.501E+00
   12.200   5.669E+00
   12.300   5.836E+00
   12.400   6.002E+00
   12.500   6.166E+00
   12.600   6.328E+00
   12.700   6.488E+00
   12.800   6.644E+00
   12.900   6.796E+00
   13.000   6.945E+00
   13.100   7.089E+00
   13.200   7.228E+00
   13.300   7.362E+00
   13.400   7.490E+00
   13.500   7.614E+00
   13.600   7.732E+00
   13.700   7.845E+00
   13.800   7.953E+00
   13.900   8.055E+00
   14.000   8.153E+00
   14.100   8.246E+00
   14.200   8.333E+00
   14.300   8.416E+00
   14.400   8.495E+00
   14.500   8.568E+00
   14.600   8.637E+00
   14.700   8.700E+00
   14.800   8.759E+00
   14.900   8.812E+00
   15.000   8.859E+00
   15.100   8.900E+00
   15.200   8.935E+00
   15.300   8.963E+00
   15.400   8.984E+00
   15.500   8.997E+00
   15.600   9.002E+00
   15.700   8.999E+00
   15.800   8.986E+00
   15.900   8.965E+00
   16.000   8.933E+00
   16.100   8.892E+00
   16.200   8.841E+00
   16.300   8.779E+00
   16.400   8.708E+00
   16.500   8.626E+00
   16.600   8.535E+00
   16.700   8.434E+00
   16.800   8.325E+00
   16.900   8.207E+00
   17.000   8.080E+00
   17.100   7.947E+00
   17.200   7.807E+00
   17.300   7.661E+00
   17.400   7.511E+00
   17.500   7.356E+00
   17.600   7.198E+00
   17.700   7.038E+00
   17.800   6.876E+00
   17.900   6.713E+00
   18.000   6.549E+00
   18.100   6.386E+00
   18.200   6.224E+00
   18.300   6.064E+00
   18.400   5.905E+00
   18.500   5.749E+00
   18.600   5.595E+00
   18.700   5.445E+00
   18.800   5.298E+00
   18.900   5.154E+00
   19.000   5.014E+00
   19.100   4.877E+00
   19.200   4.744E+00
   19.300   4.615E+00
   19.400   4.490E+00
   19.500   4.369E+00
   19.600   4.251E+00
   19.700   4.138E+00
   19.800   4.028E+00
   19.900   3.921E+00
   20.000   3.818E+00
   20.100   3.719E+00
   20.200   3.623E+00
   20.300   3.530E+00
   20.400   3.441E+00
   20.500   3.354E+00
   20.600   3.270E+00
   20.700   3.190E+00
   20.800   3.112E+00
   20.900   3.037E+00
   21.000   2.964E+00
   21.100   2.894E+00
   21.200   2.826E+00
   21.300   2.760E+00
   21.400   2.697E+00
   21.500   2.636E+00
   21.600   2.577E+00
   21.700   2.519E+00
   21.800   2.464E+00
   21.900   2.411E+00
   22.000   2.359E+00
   22.100   2.309E+00
   22.200   2.260E+00
   22.300   2.213E+00
   22.400   2.168E+00
   22.500   2.123E+00
   22.600   2.081E+00
   22.700   2.039E+00
   22.800   1.999E+00
   22.900   1.960E+00
   23.000   1.922E+00
   23.100   1.886E+00
   23.200   1.850E+00
   23.300   1.816E+00
   23.400   1.782E+00
   23.500   1.749E+00
   23.600   1.718E+00
   23.700   1.687E+00
   23.800   1.657E+00
   23.900   1.628E+00
   24.000   1.600E+00
   24.100   1.572E+00
   24.200   1.545E+00
   24.300   1.519E+00
   24.400   1.494E+00
   24.500   1.469E+00
   24.600   1.445E+00
   24.700   1.422E+00
   24.800   1.399E+00
   24.900   1.377E+00
   25.000   1.355E+00
   25.100   1.334E+00
   25.200   1.313E+00
   25.300   1.293E+00
   25.400   1.273E+00
   25.500   1.254E+00
   25.600   1.235E+00
   25.700   1.217E+00
   25.800   1.199E+00
   25.900   1.182E+00
   26.000   1.165E+00
   26.100   1.148E+00
   26.200   1.132E+00
   26.300   1.116E+00
   26.400   1.100E+00
   26.500   1.085E+00
   26.600   1.070E+00
   26.700   1.056E+00
   26.800   1.042E+00
   26.900   1.028E+00
   27.000   1.014E+00
   27.100   1.001E+00
   27.200   9.877E-01
   27.300   9.749E-01
   27.400   9.624E-01
   27.500   9.501E-01
   27.600   9.381E-01
   27.700   9.264E-01
   27.800   9.148E-01
   27.900   9.035E-01
   28.000   8.924E-01
   28.100   8.816E-01
   28.200   8.709E-01
   28.300   8.605E-01
   28.400   8.502E-01
   28.500   8.402E-01
   28.600   8.303E-01
   28.700   8.206E-01
   28.800   8.112E-01
   28.900   8.018E-01
   29.000   7.927E-01
   29.100   7.837E-01
   29.200   7.749E-01
   29.300   7.662E-01
   29.400   7.577E-01
   29.500   7.494E-01
   29.600   7.412E-01
   29.700   7.331E-01
   29.800   7.252E-01
   29.900   7.174E-01
   30.000   7.097E-01
 
 Z=  38 A=  99  D1M-QRPA-Inter
 E[MeV]  fQRPA[mb/MeV]
    0.100   4.716E-04
    0.200   1.880E-03
    0.300   4.208E-03
    0.400   7.424E-03
    0.500   1.149E-02
    0.600   1.635E-02
    0.700   2.195E-02
    0.800   2.822E-02
    0.900   3.509E-02
    1.000   4.248E-02
    1.100   5.030E-02
    1.200   5.848E-02
    1.300   6.694E-02
    1.400   7.560E-02
    1.500   8.439E-02
    1.600   9.323E-02
    1.700   1.021E-01
    1.800   1.109E-01
    1.900   1.195E-01
    2.000   1.281E-01
    2.100   1.365E-01
    2.200   1.447E-01
    2.300   1.527E-01
    2.400   1.606E-01
    2.500   1.682E-01
    2.600   1.757E-01
    2.700   1.830E-01
    2.800   1.903E-01
    2.900   1.974E-01
    3.000   2.045E-01
    3.100   2.115E-01
    3.200   2.185E-01
    3.300   2.256E-01
    3.400   2.327E-01
    3.500   2.400E-01
    3.600   2.474E-01
    3.700   2.550E-01
    3.800   2.628E-01
    3.900   2.708E-01
    4.000   2.791E-01
    4.100   2.877E-01
    4.200   2.966E-01
    4.300   3.059E-01
    4.400   3.156E-01
    4.500   3.257E-01
    4.600   3.362E-01
    4.700   3.472E-01
    4.800   3.587E-01
    4.900   3.707E-01
    5.000   3.833E-01
    5.100   3.964E-01
    5.200   4.101E-01
    5.300   4.245E-01
    5.400   4.395E-01
    5.500   4.552E-01
    5.600   4.716E-01
    5.700   4.887E-01
    5.800   5.066E-01
    5.900   5.253E-01
    6.000   5.449E-01
    6.100   5.653E-01
    6.200   5.866E-01
    6.300   6.088E-01
    6.400   6.319E-01
    6.500   6.561E-01
    6.600   6.812E-01
    6.700   7.075E-01
    6.800   7.348E-01
    6.900   7.633E-01
    7.000   7.929E-01
    7.100   8.238E-01
    7.200   8.559E-01
    7.300   8.893E-01
    7.400   9.241E-01
    7.500   9.602E-01
    7.600   9.978E-01
    7.700   1.037E+00
    7.800   1.078E+00
    7.900   1.120E+00
    8.000   1.164E+00
    8.100   1.209E+00
    8.200   1.257E+00
    8.300   1.306E+00
    8.400   1.358E+00
    8.500   1.411E+00
    8.600   1.466E+00
    8.700   1.524E+00
    8.800   1.584E+00
    8.900   1.646E+00
    9.000   1.711E+00
    9.100   1.778E+00
    9.200   1.848E+00
    9.300   1.920E+00
    9.400   1.996E+00
    9.500   2.075E+00
    9.600   2.157E+00
    9.700   2.242E+00
    9.800   2.330E+00
    9.900   2.423E+00
   10.000   2.519E+00
   10.100   2.619E+00
   10.200   2.722E+00
   10.300   2.830E+00
   10.400   2.943E+00
   10.500   3.059E+00
   10.600   3.181E+00
   10.700   3.306E+00
   10.800   3.437E+00
   10.900   3.572E+00
   11.000   3.712E+00
   11.100   3.857E+00
   11.200   4.006E+00
   11.300   4.160E+00
   11.400   4.318E+00
   11.500   4.480E+00
   11.600   4.646E+00
   11.700   4.816E+00
   11.800   4.988E+00
   11.900   5.163E+00
   12.000   5.341E+00
   12.100   5.520E+00
   12.200   5.700E+00
   12.300   5.880E+00
   12.400   6.059E+00
   12.500   6.238E+00
   12.600   6.415E+00
   12.700   6.589E+00
   12.800   6.759E+00
   12.900   6.926E+00
   13.000   7.089E+00
   13.100   7.246E+00
   13.200   7.398E+00
   13.300   7.543E+00
   13.400   7.683E+00
   13.500   7.817E+00
   13.600   7.944E+00
   13.700   8.065E+00
   13.800   8.180E+00
   13.900   8.289E+00
   14.000   8.392E+00
   14.100   8.490E+00
   14.200   8.582E+00
   14.300   8.670E+00
   14.400   8.753E+00
   14.500   8.832E+00
   14.600   8.907E+00
   14.700   8.977E+00
   14.800   9.044E+00
   14.900   9.106E+00
   15.000   9.164E+00
   15.100   9.217E+00
   15.200   9.265E+00
   15.300   9.309E+00
   15.400   9.346E+00
   15.500   9.378E+00
   15.600   9.403E+00
   15.700   9.421E+00
   15.800   9.431E+00
   15.900   9.434E+00
   16.000   9.427E+00
   16.100   9.412E+00
   16.200   9.388E+00
   16.300   9.354E+00
   16.400   9.310E+00
   16.500   9.257E+00
   16.600   9.193E+00
   16.700   9.119E+00
   16.800   9.035E+00
   16.900   8.942E+00
   17.000   8.838E+00
   17.100   8.726E+00
   17.200   8.604E+00
   17.300   8.474E+00
   17.400   8.336E+00
   17.500   8.192E+00
   17.600   8.040E+00
   17.700   7.883E+00
   17.800   7.721E+00
   17.900   7.554E+00
   18.000   7.384E+00
   18.100   7.212E+00
   18.200   7.038E+00
   18.300   6.863E+00
   18.400   6.687E+00
   18.500   6.513E+00
   18.600   6.339E+00
   18.700   6.167E+00
   18.800   5.997E+00
   18.900   5.830E+00
   19.000   5.665E+00
   19.100   5.505E+00
   19.200   5.348E+00
   19.300   5.195E+00
   19.400   5.046E+00
   19.500   4.901E+00
   19.600   4.761E+00
   19.700   4.625E+00
   19.800   4.493E+00
   19.900   4.365E+00
   20.000   4.242E+00
   20.100   4.123E+00
   20.200   4.008E+00
   20.300   3.898E+00
   20.400   3.791E+00
   20.500   3.688E+00
   20.600   3.589E+00
   20.700   3.493E+00
   20.800   3.401E+00
   20.900   3.312E+00
   21.000   3.226E+00
   21.100   3.144E+00
   21.200   3.064E+00
   21.300   2.988E+00
   21.400   2.914E+00
   21.500   2.843E+00
   21.600   2.774E+00
   21.700   2.708E+00
   21.800   2.644E+00
   21.900   2.582E+00
   22.000   2.523E+00
   22.100   2.465E+00
   22.200   2.410E+00
   22.300   2.356E+00
   22.400   2.304E+00
   22.500   2.254E+00
   22.600   2.206E+00
   22.700   2.159E+00
   22.800   2.114E+00
   22.900   2.070E+00
   23.000   2.027E+00
   23.100   1.986E+00
   23.200   1.947E+00
   23.300   1.908E+00
   23.400   1.871E+00
   23.500   1.834E+00
   23.600   1.799E+00
   23.700   1.765E+00
   23.800   1.732E+00
   23.900   1.700E+00
   24.000   1.669E+00
   24.100   1.639E+00
   24.200   1.609E+00
   24.300   1.581E+00
   24.400   1.553E+00
   24.500   1.526E+00
   24.600   1.500E+00
   24.700   1.474E+00
   24.800   1.449E+00
   24.900   1.425E+00
   25.000   1.401E+00
   25.100   1.378E+00
   25.200   1.356E+00
   25.300   1.334E+00
   25.400   1.313E+00
   25.500   1.292E+00
   25.600   1.272E+00
   25.700   1.253E+00
   25.800   1.234E+00
   25.900   1.215E+00
   26.000   1.197E+00
   26.100   1.179E+00
   26.200   1.161E+00
   26.300   1.144E+00
   26.400   1.128E+00
   26.500   1.112E+00
   26.600   1.096E+00
   26.700   1.080E+00
   26.800   1.065E+00
   26.900   1.050E+00
   27.000   1.036E+00
   27.100   1.022E+00
   27.200   1.008E+00
   27.300   9.946E-01
   27.400   9.814E-01
   27.500   9.684E-01
   27.600   9.558E-01
   27.700   9.434E-01
   27.800   9.312E-01
   27.900   9.193E-01
   28.000   9.077E-01
   28.100   8.963E-01
   28.200   8.851E-01
   28.300   8.741E-01
   28.400   8.634E-01
   28.500   8.529E-01
   28.600   8.425E-01
   28.700   8.324E-01
   28.800   8.225E-01
   28.900   8.128E-01
   29.000   8.032E-01
   29.100   7.938E-01
   29.200   7.847E-01
   29.300   7.756E-01
   29.400   7.668E-01
   29.500   7.581E-01
   29.600   7.496E-01
   29.700   7.412E-01
   29.800   7.329E-01
   29.900   7.249E-01
   30.000   7.169E-01
 
 Z=  38 A= 100  D1M-QRPA
   E[MeV]   fQRPA[mb/MeV]
    0.100   4.159E-04
    0.200   1.661E-03
    0.300   3.726E-03
    0.400   6.596E-03
    0.500   1.025E-02
    0.600   1.466E-02
    0.700   1.979E-02
    0.800   2.560E-02
    0.900   3.205E-02
    1.000   3.907E-02
    1.100   4.661E-02
    1.200   5.460E-02
    1.300   6.296E-02
    1.400   7.164E-02
    1.500   8.054E-02
    1.600   8.961E-02
    1.700   9.875E-02
    1.800   1.079E-01
    1.900   1.170E-01
    2.000   1.261E-01
    2.100   1.349E-01
    2.200   1.436E-01
    2.300   1.521E-01
    2.400   1.604E-01
    2.500   1.684E-01
    2.600   1.762E-01
    2.700   1.838E-01
    2.800   1.912E-01
    2.900   1.984E-01
    3.000   2.055E-01
    3.100   2.125E-01
    3.200   2.194E-01
    3.300   2.263E-01
    3.400   2.332E-01
    3.500   2.402E-01
    3.600   2.472E-01
    3.700   2.544E-01
    3.800   2.618E-01
    3.900   2.694E-01
    4.000   2.772E-01
    4.100   2.853E-01
    4.200   2.937E-01
    4.300   3.024E-01
    4.400   3.115E-01
    4.500   3.210E-01
    4.600   3.309E-01
    4.700   3.413E-01
    4.800   3.522E-01
    4.900   3.636E-01
    5.000   3.755E-01
    5.100   3.880E-01
    5.200   4.011E-01
    5.300   4.149E-01
    5.400   4.292E-01
    5.500   4.443E-01
    5.600   4.601E-01
    5.700   4.766E-01
    5.800   4.938E-01
    5.900   5.119E-01
    6.000   5.308E-01
    6.100   5.506E-01
    6.200   5.712E-01
    6.300   5.928E-01
    6.400   6.153E-01
    6.500   6.388E-01
    6.600   6.633E-01
    6.700   6.889E-01
    6.800   7.155E-01
    6.900   7.433E-01
    7.000   7.723E-01
    7.100   8.024E-01
    7.200   8.338E-01
    7.300   8.665E-01
    7.400   9.005E-01
    7.500   9.359E-01
    7.600   9.727E-01
    7.700   1.011E+00
    7.800   1.051E+00
    7.900   1.092E+00
    8.000   1.135E+00
    8.100   1.180E+00
    8.200   1.226E+00
    8.300   1.274E+00
    8.400   1.324E+00
    8.500   1.376E+00
    8.600   1.430E+00
    8.700   1.486E+00
    8.800   1.545E+00
    8.900   1.605E+00
    9.000   1.668E+00
    9.100   1.734E+00
    9.200   1.802E+00
    9.300   1.873E+00
    9.400   1.946E+00
    9.500   2.023E+00
    9.600   2.103E+00
    9.700   2.186E+00
    9.800   2.272E+00
    9.900   2.362E+00
   10.000   2.456E+00
   10.100   2.554E+00
   10.200   2.656E+00
   10.300   2.763E+00
   10.400   2.874E+00
   10.500   2.989E+00
   10.600   3.110E+00
   10.700   3.235E+00
   10.800   3.366E+00
   10.900   3.502E+00
   11.000   3.643E+00
   11.100   3.789E+00
   11.200   3.941E+00
   11.300   4.098E+00
   11.400   4.261E+00
   11.500   4.428E+00
   11.600   4.600E+00
   11.700   4.777E+00
   11.800   4.958E+00
   11.900   5.142E+00
   12.000   5.329E+00
   12.100   5.519E+00
   12.200   5.711E+00
   12.300   5.904E+00
   12.400   6.096E+00
   12.500   6.289E+00
   12.600   6.479E+00
   12.700   6.668E+00
   12.800   6.853E+00
   12.900   7.034E+00
   13.000   7.210E+00
   13.100   7.381E+00
   13.200   7.545E+00
   13.300   7.703E+00
   13.400   7.854E+00
   13.500   7.997E+00
   13.600   8.134E+00
   13.700   8.262E+00
   13.800   8.384E+00
   13.900   8.499E+00
   14.000   8.608E+00
   14.100   8.711E+00
   14.200   8.808E+00
   14.300   8.900E+00
   14.400   8.988E+00
   14.500   9.073E+00
   14.600   9.153E+00
   14.700   9.231E+00
   14.800   9.305E+00
   14.900   9.377E+00
   15.000   9.446E+00
   15.100   9.512E+00
   15.200   9.575E+00
   15.300   9.634E+00
   15.400   9.690E+00
   15.500   9.741E+00
   15.600   9.787E+00
   15.700   9.829E+00
   15.800   9.864E+00
   15.900   9.893E+00
   16.000   9.915E+00
   16.100   9.929E+00
   16.200   9.935E+00
   16.300   9.932E+00
   16.400   9.920E+00
   16.500   9.899E+00
   16.600   9.867E+00
   16.700   9.825E+00
   16.800   9.773E+00
   16.900   9.709E+00
   17.000   9.634E+00
   17.100   9.547E+00
   17.200   9.450E+00
   17.300   9.341E+00
   17.400   9.221E+00
   17.500   9.090E+00
   17.600   8.949E+00
   17.700   8.799E+00
   17.800   8.639E+00
   17.900   8.472E+00
   18.000   8.297E+00
   18.100   8.117E+00
   18.200   7.930E+00
   18.300   7.740E+00
   18.400   7.547E+00
   18.500   7.352E+00
   18.600   7.156E+00
   18.700   6.960E+00
   18.800   6.765E+00
   18.900   6.571E+00
   19.000   6.380E+00
   19.100   6.192E+00
   19.200   6.007E+00
   19.300   5.827E+00
   19.400   5.651E+00
   19.500   5.479E+00
   19.600   5.313E+00
   19.700   5.151E+00
   19.800   4.994E+00
   19.900   4.843E+00
   20.000   4.697E+00
   20.100   4.556E+00
   20.200   4.420E+00
   20.300   4.289E+00
   20.400   4.163E+00
   20.500   4.041E+00
   20.600   3.924E+00
   20.700   3.812E+00
   20.800   3.704E+00
   20.900   3.600E+00
   21.000   3.500E+00
   21.100   3.404E+00
   21.200   3.312E+00
   21.300   3.223E+00
   21.400   3.137E+00
   21.500   3.055E+00
   21.600   2.976E+00
   21.700   2.900E+00
   21.800   2.827E+00
   21.900   2.757E+00
   22.000   2.689E+00
   22.100   2.623E+00
   22.200   2.561E+00
   22.300   2.500E+00
   22.400   2.441E+00
   22.500   2.385E+00
   22.600   2.330E+00
   22.700   2.278E+00
   22.800   2.227E+00
   22.900   2.178E+00
   23.000   2.131E+00
   23.100   2.085E+00
   23.200   2.041E+00
   23.300   1.998E+00
   23.400   1.957E+00
   23.500   1.917E+00
   23.600   1.878E+00
   23.700   1.841E+00
   23.800   1.804E+00
   23.900   1.769E+00
   24.000   1.735E+00
   24.100   1.702E+00
   24.200   1.670E+00
   24.300   1.639E+00
   24.400   1.608E+00
   24.500   1.579E+00
   24.600   1.551E+00
   24.700   1.523E+00
   24.800   1.496E+00
   24.900   1.470E+00
   25.000   1.444E+00
   25.100   1.420E+00
   25.200   1.396E+00
   25.300   1.372E+00
   25.400   1.350E+00
   25.500   1.327E+00
   25.600   1.306E+00
   25.700   1.285E+00
   25.800   1.264E+00
   25.900   1.244E+00
   26.000   1.225E+00
   26.100   1.206E+00
   26.200   1.188E+00
   26.300   1.170E+00
   26.400   1.152E+00
   26.500   1.135E+00
   26.600   1.118E+00
   26.700   1.102E+00
   26.800   1.086E+00
   26.900   1.070E+00
   27.000   1.055E+00
   27.100   1.040E+00
   27.200   1.025E+00
   27.300   1.011E+00
   27.400   9.973E-01
   27.500   9.837E-01
   27.600   9.704E-01
   27.700   9.574E-01
   27.800   9.446E-01
   27.900   9.322E-01
   28.000   9.200E-01
   28.100   9.080E-01
   28.200   8.964E-01
   28.300   8.849E-01
   28.400   8.737E-01
   28.500   8.627E-01
   28.600   8.520E-01
   28.700   8.414E-01
   28.800   8.311E-01
   28.900   8.210E-01
   29.000   8.111E-01
   29.100   8.013E-01
   29.200   7.918E-01
   29.300   7.824E-01
   29.400   7.733E-01
   29.500   7.642E-01
   29.600   7.554E-01
   29.700   7.467E-01
   29.800   7.382E-01
   29.900   7.299E-01
   30.000   7.217E-01
 
 Z=  38 A= 101  D1M-QRPA-Inter
 E[MeV]  fQRPA[mb/MeV]
    0.100   4.441E-04
    0.200   1.775E-03
    0.300   3.986E-03
    0.400   7.068E-03
    0.500   1.101E-02
    0.600   1.578E-02
    0.700   2.137E-02
    0.800   2.774E-02
    0.900   3.484E-02
    1.000   4.264E-02
    1.100   5.107E-02
    1.200   6.008E-02
    1.300   6.958E-02
    1.400   7.950E-02
    1.500   8.975E-02
    1.600   1.002E-01
    1.700   1.109E-01
    1.800   1.216E-01
    1.900   1.322E-01
    2.000   1.428E-01
    2.100   1.531E-01
    2.200   1.632E-01
    2.300   1.729E-01
    2.400   1.824E-01
    2.500   1.914E-01
    2.600   2.000E-01
    2.700   2.083E-01
    2.800   2.162E-01
    2.900   2.237E-01
    3.000   2.309E-01
    3.100   2.379E-01
    3.200   2.446E-01
    3.300   2.511E-01
    3.400   2.575E-01
    3.500   2.639E-01
    3.600   2.702E-01
    3.700   2.766E-01
    3.800   2.830E-01
    3.900   2.896E-01
    4.000   2.964E-01
    4.100   3.034E-01
    4.200   3.107E-01
    4.300   3.182E-01
    4.400   3.261E-01
    4.500   3.344E-01
    4.600   3.431E-01
    4.700   3.522E-01
    4.800   3.618E-01
    4.900   3.719E-01
    5.000   3.826E-01
    5.100   3.938E-01
    5.200   4.055E-01
    5.300   4.180E-01
    5.400   4.310E-01
    5.500   4.448E-01
    5.600   4.593E-01
    5.700   4.745E-01
    5.800   4.905E-01
    5.900   5.073E-01
    6.000   5.250E-01
    6.100   5.435E-01
    6.200   5.630E-01
    6.300   5.834E-01
    6.400   6.047E-01
    6.500   6.270E-01
    6.600   6.504E-01
    6.700   6.749E-01
    6.800   7.005E-01
    6.900   7.272E-01
    7.000   7.551E-01
    7.100   7.842E-01
    7.200   8.146E-01
    7.300   8.463E-01
    7.400   8.793E-01
    7.500   9.136E-01
    7.600   9.494E-01
    7.700   9.866E-01
    7.800   1.025E+00
    7.900   1.065E+00
    8.000   1.107E+00
    8.100   1.150E+00
    8.200   1.195E+00
    8.300   1.242E+00
    8.400   1.290E+00
    8.500   1.341E+00
    8.600   1.393E+00
    8.700   1.447E+00
    8.800   1.503E+00
    8.900   1.561E+00
    9.000   1.621E+00
    9.100   1.684E+00
    9.200   1.749E+00
    9.300   1.817E+00
    9.400   1.887E+00
    9.500   1.960E+00
    9.600   2.036E+00
    9.700   2.116E+00
    9.800   2.198E+00
    9.900   2.284E+00
   10.000   2.373E+00
   10.100   2.467E+00
   10.200   2.564E+00
   10.300   2.666E+00
   10.400   2.772E+00
   10.500   2.883E+00
   10.600   3.000E+00
   10.700   3.121E+00
   10.800   3.248E+00
   10.900   3.380E+00
   11.000   3.518E+00
   11.100   3.662E+00
   11.200   3.812E+00
   11.300   3.968E+00
   11.400   4.130E+00
   11.500   4.298E+00
   11.600   4.472E+00
   11.700   4.651E+00
   11.800   4.835E+00
   11.900   5.024E+00
   12.000   5.217E+00
   12.100   5.413E+00
   12.200   5.612E+00
   12.300   5.813E+00
   12.400   6.015E+00
   12.500   6.217E+00
   12.600   6.418E+00
   12.700   6.617E+00
   12.800   6.813E+00
   12.900   7.005E+00
   13.000   7.192E+00
   13.100   7.372E+00
   13.200   7.546E+00
   13.300   7.712E+00
   13.400   7.869E+00
   13.500   8.018E+00
   13.600   8.158E+00
   13.700   8.289E+00
   13.800   8.412E+00
   13.900   8.526E+00
   14.000   8.632E+00
   14.100   8.731E+00
   14.200   8.824E+00
   14.300   8.911E+00
   14.400   8.993E+00
   14.500   9.071E+00
   14.600   9.145E+00
   14.700   9.217E+00
   14.800   9.286E+00
   14.900   9.352E+00
   15.000   9.417E+00
   15.100   9.479E+00
   15.200   9.539E+00
   15.300   9.596E+00
   15.400   9.650E+00
   15.500   9.701E+00
   15.600   9.748E+00
   15.700   9.790E+00
   15.800   9.827E+00
   15.900   9.858E+00
   16.000   9.882E+00
   16.100   9.900E+00
   16.200   9.910E+00
   16.300   9.913E+00
   16.400   9.907E+00
   16.500   9.893E+00
   16.600   9.870E+00
   16.700   9.838E+00
   16.800   9.797E+00
   16.900   9.746E+00
   17.000   9.686E+00
   17.100   9.616E+00
   17.200   9.535E+00
   17.300   9.445E+00
   17.400   9.344E+00
   17.500   9.232E+00
   17.600   9.111E+00
   17.700   8.979E+00
   17.800   8.837E+00
   17.900   8.686E+00
   18.000   8.525E+00
   18.100   8.356E+00
   18.200   8.180E+00
   18.300   7.997E+00
   18.400   7.807E+00
   18.500   7.614E+00
   18.600   7.416E+00
   18.700   7.216E+00
   18.800   7.014E+00
   18.900   6.813E+00
   19.000   6.611E+00
   19.100   6.412E+00
   19.200   6.214E+00
   19.300   6.020E+00
   19.400   5.830E+00
   19.500   5.644E+00
   19.600   5.462E+00
   19.700   5.286E+00
   19.800   5.115E+00
   19.900   4.950E+00
   20.000   4.790E+00
   20.100   4.636E+00
   20.200   4.488E+00
   20.300   4.346E+00
   20.400   4.208E+00
   20.500   4.077E+00
   20.600   3.950E+00
   20.700   3.829E+00
   20.800   3.712E+00
   20.900   3.601E+00
   21.000   3.494E+00
   21.100   3.391E+00
   21.200   3.293E+00
   21.300   3.199E+00
   21.400   3.108E+00
   21.500   3.021E+00
   21.600   2.938E+00
   21.700   2.858E+00
   21.800   2.782E+00
   21.900   2.708E+00
   22.000   2.638E+00
   22.100   2.570E+00
   22.200   2.504E+00
   22.300   2.442E+00
   22.400   2.381E+00
   22.500   2.323E+00
   22.600   2.267E+00
   22.700   2.214E+00
   22.800   2.162E+00
   22.900   2.112E+00
   23.000   2.064E+00
   23.100   2.017E+00
   23.200   1.972E+00
   23.300   1.929E+00
   23.400   1.888E+00
   23.500   1.847E+00
   23.600   1.808E+00
   23.700   1.771E+00
   23.800   1.734E+00
   23.900   1.699E+00
   24.000   1.665E+00
   24.100   1.632E+00
   24.200   1.600E+00
   24.300   1.569E+00
   24.400   1.539E+00
   24.500   1.510E+00
   24.600   1.481E+00
   24.700   1.454E+00
   24.800   1.428E+00
   24.900   1.402E+00
   25.000   1.377E+00
   25.100   1.352E+00
   25.200   1.329E+00
   25.300   1.306E+00
   25.400   1.283E+00
   25.500   1.262E+00
   25.600   1.241E+00
   25.700   1.220E+00
   25.800   1.200E+00
   25.900   1.181E+00
   26.000   1.162E+00
   26.100   1.143E+00
   26.200   1.125E+00
   26.300   1.108E+00
   26.400   1.090E+00
   26.500   1.074E+00
   26.600   1.058E+00
   26.700   1.042E+00
   26.800   1.026E+00
   26.900   1.011E+00
   27.000   9.963E-01
   27.100   9.819E-01
   27.200   9.679E-01
   27.300   9.541E-01
   27.400   9.407E-01
   27.500   9.276E-01
   27.600   9.148E-01
   27.700   9.023E-01
   27.800   8.900E-01
   27.900   8.780E-01
   28.000   8.663E-01
   28.100   8.548E-01
   28.200   8.436E-01
   28.300   8.326E-01
   28.400   8.219E-01
   28.500   8.113E-01
   28.600   8.010E-01
   28.700   7.909E-01
   28.800   7.810E-01
   28.900   7.713E-01
   29.000   7.619E-01
   29.100   7.525E-01
   29.200   7.434E-01
   29.300   7.345E-01
   29.400   7.257E-01
   29.500   7.171E-01
   29.600   7.087E-01
   29.700   7.004E-01
   29.800   6.923E-01
   29.900   6.843E-01
   30.000   6.765E-01
 
 Z=  38 A= 102  D1M-QRPA
   E[MeV]   fQRPA[mb/MeV]
    0.100   4.733E-04
    0.200   1.893E-03
    0.300   4.256E-03
    0.400   7.559E-03
    0.500   1.180E-02
    0.600   1.696E-02
    0.700   2.303E-02
    0.800   2.999E-02
    0.900   3.780E-02
    1.000   4.644E-02
    1.100   5.585E-02
    1.200   6.597E-02
    1.300   7.673E-02
    1.400   8.804E-02
    1.500   9.980E-02
    1.600   1.119E-01
    1.700   1.242E-01
    1.800   1.367E-01
    1.900   1.491E-01
    2.000   1.614E-01
    2.100   1.734E-01
    2.200   1.850E-01
    2.300   1.963E-01
    2.400   2.070E-01
    2.500   2.171E-01
    2.600   2.267E-01
    2.700   2.356E-01
    2.800   2.439E-01
    2.900   2.517E-01
    3.000   2.590E-01
    3.100   2.657E-01
    3.200   2.721E-01
    3.300   2.781E-01
    3.400   2.838E-01
    3.500   2.893E-01
    3.600   2.947E-01
    3.700   3.000E-01
    3.800   3.054E-01
    3.900   3.108E-01
    4.000   3.163E-01
    4.100   3.220E-01
    4.200   3.280E-01
    4.300   3.342E-01
    4.400   3.407E-01
    4.500   3.477E-01
    4.600   3.550E-01
    4.700   3.627E-01
    4.800   3.709E-01
    4.900   3.797E-01
    5.000   3.889E-01
    5.100   3.987E-01
    5.200   4.092E-01
    5.300   4.202E-01
    5.400   4.320E-01
    5.500   4.444E-01
    5.600   4.576E-01
    5.700   4.715E-01
    5.800   4.862E-01
    5.900   5.018E-01
    6.000   5.182E-01
    6.100   5.355E-01
    6.200   5.537E-01
    6.300   5.729E-01
    6.400   5.931E-01
    6.500   6.143E-01
    6.600   6.365E-01
    6.700   6.599E-01
    6.800   6.844E-01
    6.900   7.100E-01
    7.000   7.368E-01
    7.100   7.649E-01
    7.200   7.942E-01
    7.300   8.248E-01
    7.400   8.568E-01
    7.500   8.900E-01
    7.600   9.247E-01
    7.700   9.608E-01
    7.800   9.983E-01
    7.900   1.037E+00
    8.000   1.078E+00
    8.100   1.120E+00
    8.200   1.163E+00
    8.300   1.208E+00
    8.400   1.255E+00
    8.500   1.303E+00
    8.600   1.353E+00
    8.700   1.405E+00
    8.800   1.459E+00
    8.900   1.515E+00
    9.000   1.573E+00
    9.100   1.633E+00
    9.200   1.695E+00
    9.300   1.759E+00
    9.400   1.826E+00
    9.500   1.896E+00
    9.600   1.968E+00
    9.700   2.044E+00
    9.800   2.122E+00
    9.900   2.204E+00
   10.000   2.289E+00
   10.100   2.378E+00
   10.200   2.470E+00
   10.300   2.568E+00
   10.400   2.669E+00
   10.500   2.776E+00
   10.600   2.887E+00
   10.700   3.005E+00
   10.800   3.127E+00
   10.900   3.256E+00
   11.000   3.391E+00
   11.100   3.532E+00
   11.200   3.680E+00
   11.300   3.835E+00
   11.400   3.996E+00
   11.500   4.164E+00
   11.600   4.338E+00
   11.700   4.519E+00
   11.800   4.706E+00
   11.900   4.898E+00
   12.000   5.096E+00
   12.100   5.298E+00
   12.200   5.503E+00
   12.300   5.712E+00
   12.400   5.922E+00
   12.500   6.133E+00
   12.600   6.344E+00
   12.700   6.553E+00
   12.800   6.760E+00
   12.900   6.962E+00
   13.000   7.158E+00
   13.100   7.349E+00
   13.200   7.531E+00
   13.300   7.704E+00
   13.400   7.869E+00
   13.500   8.023E+00
   13.600   8.166E+00
   13.700   8.299E+00
   13.800   8.422E+00
   13.900   8.535E+00
   14.000   8.639E+00
   14.100   8.734E+00
   14.200   8.822E+00
   14.300   8.903E+00
   14.400   8.979E+00
   14.500   9.051E+00
   14.600   9.119E+00
   14.700   9.184E+00
   14.800   9.247E+00
   14.900   9.308E+00
   15.000   9.368E+00
   15.100   9.427E+00
   15.200   9.484E+00
   15.300   9.539E+00
   15.400   9.592E+00
   15.500   9.642E+00
   15.600   9.689E+00
   15.700   9.732E+00
   15.800   9.770E+00
   15.900   9.803E+00
   16.000   9.830E+00
   16.100   9.851E+00
   16.200   9.866E+00
   16.300   9.873E+00
   16.400   9.874E+00
   16.500   9.867E+00
   16.600   9.853E+00
   16.700   9.831E+00
   16.800   9.802E+00
   16.900   9.764E+00
   17.000   9.719E+00
   17.100   9.665E+00
   17.200   9.602E+00
   17.300   9.531E+00
   17.400   9.449E+00
   17.500   9.358E+00
   17.600   9.256E+00
   17.700   9.144E+00
   17.800   9.021E+00
   17.900   8.887E+00
   18.000   8.742E+00
   18.100   8.586E+00
   18.200   8.420E+00
   18.300   8.244E+00
   18.400   8.060E+00
   18.500   7.868E+00
   18.600   7.670E+00
   18.700   7.466E+00
   18.800   7.259E+00
   18.900   7.048E+00
   19.000   6.837E+00
   19.100   6.625E+00
   19.200   6.415E+00
   19.300   6.207E+00
   19.400   6.002E+00
   19.500   5.801E+00
   19.600   5.605E+00
   19.700   5.414E+00
   19.800   5.229E+00
   19.900   5.049E+00
   20.000   4.876E+00
   20.100   4.709E+00
   20.200   4.548E+00
   20.300   4.394E+00
   20.400   4.246E+00
   20.500   4.104E+00
   20.600   3.968E+00
   20.700   3.838E+00
   20.800   3.714E+00
   20.900   3.595E+00
   21.000   3.481E+00
   21.100   3.372E+00
   21.200   3.268E+00
   21.300   3.168E+00
   21.400   3.073E+00
   21.500   2.982E+00
   21.600   2.895E+00
   21.700   2.811E+00
   21.800   2.732E+00
   21.900   2.655E+00
   22.000   2.582E+00
   22.100   2.512E+00
   22.200   2.445E+00
   22.300   2.380E+00
   22.400   2.318E+00
   22.500   2.259E+00
   22.600   2.202E+00
   22.700   2.147E+00
   22.800   2.094E+00
   22.900   2.043E+00
   23.000   1.995E+00
   23.100   1.948E+00
   23.200   1.902E+00
   23.300   1.859E+00
   23.400   1.817E+00
   23.500   1.776E+00
   23.600   1.737E+00
   23.700   1.700E+00
   23.800   1.663E+00
   23.900   1.628E+00
   24.000   1.594E+00
   24.100   1.561E+00
   24.200   1.530E+00
   24.300   1.499E+00
   24.400   1.469E+00
   24.500   1.440E+00
   24.600   1.413E+00
   24.700   1.386E+00
   24.800   1.359E+00
   24.900   1.334E+00
   25.000   1.309E+00
   25.100   1.286E+00
   25.200   1.262E+00
   25.300   1.240E+00
   25.400   1.218E+00
   25.500   1.197E+00
   25.600   1.176E+00
   25.700   1.156E+00
   25.800   1.137E+00
   25.900   1.118E+00
   26.000   1.099E+00
   26.100   1.081E+00
   26.200   1.064E+00
   26.300   1.047E+00
   26.400   1.030E+00
   26.500   1.014E+00
   26.600   9.983E-01
   26.700   9.830E-01
   26.800   9.680E-01
   26.900   9.534E-01
   27.000   9.392E-01
   27.100   9.253E-01
   27.200   9.117E-01
   27.300   8.985E-01
   27.400   8.856E-01
   27.500   8.730E-01
   27.600   8.606E-01
   27.700   8.486E-01
   27.800   8.368E-01
   27.900   8.253E-01
   28.000   8.141E-01
   28.100   8.031E-01
   28.200   7.923E-01
   28.300   7.818E-01
   28.400   7.715E-01
   28.500   7.614E-01
   28.600   7.516E-01
   28.700   7.419E-01
   28.800   7.325E-01
   28.900   7.232E-01
   29.000   7.142E-01
   29.100   7.053E-01
   29.200   6.966E-01
   29.300   6.881E-01
   29.400   6.797E-01
   29.500   6.715E-01
   29.600   6.635E-01
   29.700   6.556E-01
   29.800   6.479E-01
   29.900   6.403E-01
   30.000   6.329E-01
 
