 Z=  40 A=  90  D1M-QRPA
   E[MeV]   fQRPA[mb/MeV]
    0.100   1.486E-05
    0.200   5.944E-05
    0.300   1.338E-04
    0.400   2.380E-04
    0.500   3.721E-04
    0.600   5.362E-04
    0.700   7.306E-04
    0.800   9.553E-04
    0.900   1.211E-03
    1.000   1.497E-03
    1.100   1.814E-03
    1.200   2.162E-03
    1.300   2.542E-03
    1.400   2.954E-03
    1.500   3.398E-03
    1.600   3.875E-03
    1.700   4.385E-03
    1.800   4.929E-03
    1.900   5.507E-03
    2.000   6.120E-03
    2.100   6.767E-03
    2.200   7.451E-03
    2.300   8.171E-03
    2.400   8.928E-03
    2.500   9.723E-03
    2.600   1.056E-02
    2.700   1.143E-02
    2.800   1.234E-02
    2.900   1.330E-02
    3.000   1.429E-02
    3.100   1.533E-02
    3.200   1.642E-02
    3.300   1.755E-02
    3.400   1.872E-02
    3.500   1.995E-02
    3.600   2.122E-02
    3.700   2.254E-02
    3.800   2.391E-02
    3.900   2.534E-02
    4.000   2.682E-02
    4.100   2.836E-02
    4.200   2.996E-02
    4.300   3.161E-02
    4.400   3.333E-02
    4.500   3.511E-02
    4.600   3.696E-02
    4.700   3.888E-02
    4.800   4.086E-02
    4.900   4.292E-02
    5.000   4.506E-02
    5.100   4.727E-02
    5.200   4.957E-02
    5.300   5.195E-02
    5.400   5.441E-02
    5.500   5.697E-02
    5.600   5.962E-02
    5.700   6.238E-02
    5.800   6.523E-02
    5.900   6.819E-02
    6.000   7.126E-02
    6.100   7.445E-02
    6.200   7.776E-02
    6.300   8.119E-02
    6.400   8.476E-02
    6.500   8.846E-02
    6.600   9.231E-02
    6.700   9.631E-02
    6.800   1.005E-01
    6.900   1.048E-01
    7.000   1.093E-01
    7.100   1.140E-01
    7.200   1.189E-01
    7.300   1.239E-01
    7.400   1.292E-01
    7.500   1.347E-01
    7.600   1.405E-01
    7.700   1.465E-01
    7.800   1.527E-01
    7.900   1.592E-01
    8.000   1.660E-01
    8.100   1.731E-01
    8.200   1.805E-01
    8.300   1.882E-01
    8.400   1.963E-01
    8.500   2.047E-01
    8.600   2.135E-01
    8.700   2.226E-01
    8.800   2.321E-01
    8.900   2.420E-01
    9.000   2.523E-01
    9.100   2.631E-01
    9.200   2.743E-01
    9.300   2.860E-01
    9.400   2.982E-01
    9.500   3.109E-01
    9.600   3.243E-01
    9.700   3.382E-01
    9.800   3.529E-01
    9.900   3.682E-01
   10.000   3.844E-01
   10.100   4.014E-01
   10.200   4.194E-01
   10.300   4.383E-01
   10.400   4.583E-01
   10.500   4.795E-01
   10.600   5.018E-01
   10.700   5.254E-01
   10.800   5.503E-01
   10.900   5.766E-01
   11.000   6.044E-01
   11.100   6.337E-01
   11.200   6.646E-01
   11.300   6.971E-01
   11.400   7.312E-01
   11.500   7.669E-01
   11.600   8.043E-01
   11.700   8.433E-01
   11.800   8.840E-01
   11.900   9.261E-01
   12.000   9.696E-01
   12.100   1.014E+00
   12.200   1.060E+00
   12.300   1.107E+00
   12.400   1.155E+00
   12.500   1.204E+00
   12.600   1.253E+00
   12.700   1.302E+00
   12.800   1.352E+00
   12.900   1.403E+00
   13.000   1.454E+00
   13.100   1.506E+00
   13.200   1.559E+00
   13.300   1.613E+00
   13.400   1.670E+00
   13.500   1.729E+00
   13.600   1.792E+00
   13.700   1.858E+00
   13.800   1.928E+00
   13.900   2.004E+00
   14.000   2.085E+00
   14.100   2.173E+00
   14.200   2.267E+00
   14.300   2.370E+00
   14.400   2.480E+00
   14.500   2.600E+00
   14.600   2.730E+00
   14.700   2.870E+00
   14.800   3.022E+00
   14.900   3.186E+00
   15.000   3.363E+00
   15.100   3.553E+00
   15.200   3.757E+00
   15.300   3.975E+00
   15.400   4.207E+00
   15.500   4.454E+00
   15.600   4.714E+00
   15.700   4.987E+00
   15.800   5.271E+00
   15.900   5.563E+00
   16.000   5.862E+00
   16.100   6.163E+00
   16.200   6.464E+00
   16.300   6.758E+00
   16.400   7.043E+00
   16.500   7.314E+00
   16.600   7.566E+00
   16.700   7.796E+00
   16.800   8.001E+00
   16.900   8.179E+00
   17.000   8.329E+00
   17.100   8.452E+00
   17.200   8.546E+00
   17.300   8.614E+00
   17.400   8.656E+00
   17.500   8.672E+00
   17.600   8.663E+00
   17.700   8.629E+00
   17.800   8.572E+00
   17.900   8.490E+00
   18.000   8.384E+00
   18.100   8.255E+00
   18.200   8.103E+00
   18.300   7.929E+00
   18.400   7.737E+00
   18.500   7.527E+00
   18.600   7.304E+00
   18.700   7.069E+00
   18.800   6.828E+00
   18.900   6.583E+00
   19.000   6.337E+00
   19.100   6.093E+00
   19.200   5.854E+00
   19.300   5.622E+00
   19.400   5.398E+00
   19.500   5.183E+00
   19.600   4.978E+00
   19.700   4.782E+00
   19.800   4.596E+00
   19.900   4.419E+00
   20.000   4.250E+00
   20.100   4.089E+00
   20.200   3.935E+00
   20.300   3.788E+00
   20.400   3.646E+00
   20.500   3.510E+00
   20.600   3.379E+00
   20.700   3.253E+00
   20.800   3.132E+00
   20.900   3.015E+00
   21.000   2.904E+00
   21.100   2.797E+00
   21.200   2.695E+00
   21.300   2.598E+00
   21.400   2.505E+00
   21.500   2.417E+00
   21.600   2.334E+00
   21.700   2.254E+00
   21.800   2.179E+00
   21.900   2.108E+00
   22.000   2.040E+00
   22.100   1.976E+00
   22.200   1.915E+00
   22.300   1.857E+00
   22.400   1.802E+00
   22.500   1.749E+00
   22.600   1.699E+00
   22.700   1.651E+00
   22.800   1.605E+00
   22.900   1.561E+00
   23.000   1.518E+00
   23.100   1.477E+00
   23.200   1.437E+00
   23.300   1.397E+00
   23.400   1.359E+00
   23.500   1.322E+00
   23.600   1.286E+00
   23.700   1.250E+00
   23.800   1.215E+00
   23.900   1.181E+00
   24.000   1.148E+00
   24.100   1.117E+00
   24.200   1.086E+00
   24.300   1.056E+00
   24.400   1.027E+00
   24.500   9.989E-01
   24.600   9.722E-01
   24.700   9.465E-01
   24.800   9.219E-01
   24.900   8.983E-01
   25.000   8.758E-01
   25.100   8.542E-01
   25.200   8.337E-01
   25.300   8.141E-01
   25.400   7.954E-01
   25.500   7.776E-01
   25.600   7.607E-01
   25.700   7.446E-01
   25.800   7.293E-01
   25.900   7.148E-01
   26.000   7.011E-01
   26.100   6.880E-01
   26.200   6.757E-01
   26.300   6.640E-01
   26.400   6.529E-01
   26.500   6.425E-01
   26.600   6.326E-01
   26.700   6.232E-01
   26.800   6.143E-01
   26.900   6.058E-01
   27.000   5.977E-01
   27.100   5.898E-01
   27.200   5.822E-01
   27.300   5.746E-01
   27.400   5.672E-01
   27.500   5.596E-01
   27.600   5.520E-01
   27.700   5.442E-01
   27.800   5.362E-01
   27.900   5.280E-01
   28.000   5.195E-01
   28.100   5.109E-01
   28.200   5.020E-01
   28.300   4.930E-01
   28.400   4.840E-01
   28.500   4.749E-01
   28.600   4.658E-01
   28.700   4.569E-01
   28.800   4.480E-01
   28.900   4.393E-01
   29.000   4.308E-01
   29.100   4.226E-01
   29.200   4.145E-01
   29.300   4.067E-01
   29.400   3.991E-01
   29.500   3.917E-01
   29.600   3.846E-01
   29.700   3.778E-01
   29.800   3.711E-01
   29.900   3.647E-01
   30.000   3.585E-01
 
 Z=  40 A=  91  D1M-QRPA-Inter
 E[MeV]  fQRPA[mb/MeV]
    0.100   2.675E-05
    0.200   1.070E-04
    0.300   2.409E-04
    0.400   4.285E-04
    0.500   6.700E-04
    0.600   9.657E-04
    0.700   1.316E-03
    0.800   1.721E-03
    0.900   2.181E-03
    1.000   2.696E-03
    1.100   3.268E-03
    1.200   3.896E-03
    1.300   4.582E-03
    1.400   5.325E-03
    1.500   6.128E-03
    1.600   6.989E-03
    1.700   7.911E-03
    1.800   8.894E-03
    1.900   9.940E-03
    2.000   1.105E-02
    2.100   1.222E-02
    2.200   1.346E-02
    2.300   1.477E-02
    2.400   1.614E-02
    2.500   1.758E-02
    2.600   1.910E-02
    2.700   2.069E-02
    2.800   2.235E-02
    2.900   2.409E-02
    3.000   2.590E-02
    3.100   2.780E-02
    3.200   2.978E-02
    3.300   3.184E-02
    3.400   3.399E-02
    3.500   3.623E-02
    3.600   3.856E-02
    3.700   4.099E-02
    3.800   4.351E-02
    3.900   4.614E-02
    4.000   4.887E-02
    4.100   5.170E-02
    4.200   5.465E-02
    4.300   5.771E-02
    4.400   6.089E-02
    4.500   6.419E-02
    4.600   6.762E-02
    4.700   7.118E-02
    4.800   7.488E-02
    4.900   7.872E-02
    5.000   8.271E-02
    5.100   8.684E-02
    5.200   9.114E-02
    5.300   9.560E-02
    5.400   1.002E-01
    5.500   1.051E-01
    5.600   1.101E-01
    5.700   1.152E-01
    5.800   1.206E-01
    5.900   1.263E-01
    6.000   1.321E-01
    6.100   1.381E-01
    6.200   1.444E-01
    6.300   1.510E-01
    6.400   1.578E-01
    6.500   1.649E-01
    6.600   1.723E-01
    6.700   1.800E-01
    6.800   1.880E-01
    6.900   1.963E-01
    7.000   2.050E-01
    7.100   2.141E-01
    7.200   2.235E-01
    7.300   2.333E-01
    7.400   2.436E-01
    7.500   2.543E-01
    7.600   2.655E-01
    7.700   2.771E-01
    7.800   2.893E-01
    7.900   3.020E-01
    8.000   3.152E-01
    8.100   3.290E-01
    8.200   3.434E-01
    8.300   3.585E-01
    8.400   3.741E-01
    8.500   3.904E-01
    8.600   4.074E-01
    8.700   4.251E-01
    8.800   4.435E-01
    8.900   4.627E-01
    9.000   4.825E-01
    9.100   5.032E-01
    9.200   5.246E-01
    9.300   5.468E-01
    9.400   5.699E-01
    9.500   5.938E-01
    9.600   6.186E-01
    9.700   6.443E-01
    9.800   6.710E-01
    9.900   6.988E-01
   10.000   7.275E-01
   10.100   7.574E-01
   10.200   7.885E-01
   10.300   8.208E-01
   10.400   8.544E-01
   10.500   8.893E-01
   10.600   9.257E-01
   10.700   9.635E-01
   10.800   1.003E+00
   10.900   1.044E+00
   11.000   1.086E+00
   11.100   1.131E+00
   11.200   1.177E+00
   11.300   1.225E+00
   11.400   1.274E+00
   11.500   1.326E+00
   11.600   1.379E+00
   11.700   1.435E+00
   11.800   1.492E+00
   11.900   1.552E+00
   12.000   1.614E+00
   12.100   1.677E+00
   12.200   1.743E+00
   12.300   1.811E+00
   12.400   1.881E+00
   12.500   1.954E+00
   12.600   2.028E+00
   12.700   2.105E+00
   12.800   2.184E+00
   12.900   2.266E+00
   13.000   2.350E+00
   13.100   2.438E+00
   13.200   2.530E+00
   13.300   2.625E+00
   13.400   2.726E+00
   13.500   2.831E+00
   13.600   2.942E+00
   13.700   3.060E+00
   13.800   3.184E+00
   13.900   3.316E+00
   14.000   3.456E+00
   14.100   3.606E+00
   14.200   3.764E+00
   14.300   3.932E+00
   14.400   4.111E+00
   14.500   4.300E+00
   14.600   4.501E+00
   14.700   4.713E+00
   14.800   4.936E+00
   14.900   5.170E+00
   15.000   5.416E+00
   15.100   5.673E+00
   15.200   5.939E+00
   15.300   6.215E+00
   15.400   6.499E+00
   15.500   6.789E+00
   15.600   7.083E+00
   15.700   7.378E+00
   15.800   7.672E+00
   15.900   7.962E+00
   16.000   8.243E+00
   16.100   8.513E+00
   16.200   8.767E+00
   16.300   9.000E+00
   16.400   9.211E+00
   16.500   9.395E+00
   16.600   9.550E+00
   16.700   9.674E+00
   16.800   9.766E+00
   16.900   9.827E+00
   17.000   9.856E+00
   17.100   9.855E+00
   17.200   9.827E+00
   17.300   9.772E+00
   17.400   9.692E+00
   17.500   9.591E+00
   17.600   9.470E+00
   17.700   9.330E+00
   17.800   9.174E+00
   17.900   9.002E+00
   18.000   8.815E+00
   18.100   8.616E+00
   18.200   8.405E+00
   18.300   8.185E+00
   18.400   7.956E+00
   18.500   7.720E+00
   18.600   7.480E+00
   18.700   7.238E+00
   18.800   6.995E+00
   18.900   6.753E+00
   19.000   6.515E+00
   19.100   6.281E+00
   19.200   6.054E+00
   19.300   5.833E+00
   19.400   5.620E+00
   19.500   5.415E+00
   19.600   5.219E+00
   19.700   5.032E+00
   19.800   4.852E+00
   19.900   4.681E+00
   20.000   4.517E+00
   20.100   4.361E+00
   20.200   4.211E+00
   20.300   4.067E+00
   20.400   3.929E+00
   20.500   3.796E+00
   20.600   3.669E+00
   20.700   3.547E+00
   20.800   3.429E+00
   20.900   3.317E+00
   21.000   3.208E+00
   21.100   3.105E+00
   21.200   3.005E+00
   21.300   2.911E+00
   21.400   2.820E+00
   21.500   2.733E+00
   21.600   2.651E+00
   21.700   2.572E+00
   21.800   2.496E+00
   21.900   2.425E+00
   22.000   2.356E+00
   22.100   2.290E+00
   22.200   2.228E+00
   22.300   2.168E+00
   22.400   2.110E+00
   22.500   2.055E+00
   22.600   2.002E+00
   22.700   1.951E+00
   22.800   1.902E+00
   22.900   1.855E+00
   23.000   1.809E+00
   23.100   1.764E+00
   23.200   1.721E+00
   23.300   1.678E+00
   23.400   1.637E+00
   23.500   1.597E+00
   23.600   1.558E+00
   23.700   1.520E+00
   23.800   1.483E+00
   23.900   1.446E+00
   24.000   1.411E+00
   24.100   1.377E+00
   24.200   1.344E+00
   24.300   1.311E+00
   24.400   1.280E+00
   24.500   1.250E+00
   24.600   1.221E+00
   24.700   1.193E+00
   24.800   1.165E+00
   24.900   1.139E+00
   25.000   1.114E+00
   25.100   1.090E+00
   25.200   1.067E+00
   25.300   1.044E+00
   25.400   1.023E+00
   25.500   1.002E+00
   25.600   9.820E-01
   25.700   9.629E-01
   25.800   9.446E-01
   25.900   9.271E-01
   26.000   9.102E-01
   26.100   8.941E-01
   26.200   8.786E-01
   26.300   8.637E-01
   26.400   8.495E-01
   26.500   8.358E-01
   26.600   8.227E-01
   26.700   8.101E-01
   26.800   7.979E-01
   26.900   7.862E-01
   27.000   7.749E-01
   27.100   7.639E-01
   27.200   7.532E-01
   27.300   7.427E-01
   27.400   7.324E-01
   27.500   7.222E-01
   27.600   7.120E-01
   27.700   7.018E-01
   27.800   6.917E-01
   27.900   6.814E-01
   28.000   6.712E-01
   28.100   6.609E-01
   28.200   6.506E-01
   28.300   6.403E-01
   28.400   6.300E-01
   28.500   6.198E-01
   28.600   6.097E-01
   28.700   5.997E-01
   28.800   5.899E-01
   28.900   5.803E-01
   29.000   5.709E-01
   29.100   5.616E-01
   29.200   5.526E-01
   29.300   5.439E-01
   29.400   5.353E-01
   29.500   5.270E-01
   29.600   5.189E-01
   29.700   5.111E-01
   29.800   5.034E-01
   29.900   4.960E-01
   30.000   4.887E-01
 
 Z=  40 A=  92  D1M-QRPA
   E[MeV]   fQRPA[mb/MeV]
    0.100   4.502E-05
    0.200   1.801E-04
    0.300   4.055E-04
    0.400   7.213E-04
    0.500   1.128E-03
    0.600   1.626E-03
    0.700   2.215E-03
    0.800   2.897E-03
    0.900   3.672E-03
    1.000   4.541E-03
    1.100   5.505E-03
    1.200   6.564E-03
    1.300   7.721E-03
    1.400   8.975E-03
    1.500   1.033E-02
    1.600   1.178E-02
    1.700   1.334E-02
    1.800   1.500E-02
    1.900   1.677E-02
    2.000   1.865E-02
    2.100   2.063E-02
    2.200   2.273E-02
    2.300   2.495E-02
    2.400   2.728E-02
    2.500   2.973E-02
    2.600   3.230E-02
    2.700   3.500E-02
    2.800   3.782E-02
    2.900   4.078E-02
    3.000   4.388E-02
    3.100   4.711E-02
    3.200   5.049E-02
    3.300   5.402E-02
    3.400   5.769E-02
    3.500   6.153E-02
    3.600   6.552E-02
    3.700   6.969E-02
    3.800   7.402E-02
    3.900   7.853E-02
    4.000   8.323E-02
    4.100   8.812E-02
    4.200   9.320E-02
    4.300   9.849E-02
    4.400   1.040E-01
    4.500   1.097E-01
    4.600   1.157E-01
    4.700   1.218E-01
    4.800   1.283E-01
    4.900   1.350E-01
    5.000   1.419E-01
    5.100   1.491E-01
    5.200   1.567E-01
    5.300   1.645E-01
    5.400   1.726E-01
    5.500   1.811E-01
    5.600   1.899E-01
    5.700   1.991E-01
    5.800   2.086E-01
    5.900   2.185E-01
    6.000   2.289E-01
    6.100   2.396E-01
    6.200   2.509E-01
    6.300   2.625E-01
    6.400   2.747E-01
    6.500   2.874E-01
    6.600   3.006E-01
    6.700   3.144E-01
    6.800   3.288E-01
    6.900   3.438E-01
    7.000   3.595E-01
    7.100   3.759E-01
    7.200   3.929E-01
    7.300   4.107E-01
    7.400   4.293E-01
    7.500   4.488E-01
    7.600   4.690E-01
    7.700   4.902E-01
    7.800   5.123E-01
    7.900   5.354E-01
    8.000   5.595E-01
    8.100   5.846E-01
    8.200   6.108E-01
    8.300   6.381E-01
    8.400   6.666E-01
    8.500   6.962E-01
    8.600   7.270E-01
    8.700   7.591E-01
    8.800   7.924E-01
    8.900   8.269E-01
    9.000   8.627E-01
    9.100   8.997E-01
    9.200   9.380E-01
    9.300   9.775E-01
    9.400   1.018E+00
    9.500   1.060E+00
    9.600   1.103E+00
    9.700   1.148E+00
    9.800   1.193E+00
    9.900   1.240E+00
   10.000   1.287E+00
   10.100   1.336E+00
   10.200   1.386E+00
   10.300   1.437E+00
   10.400   1.489E+00
   10.500   1.542E+00
   10.600   1.597E+00
   10.700   1.652E+00
   10.800   1.709E+00
   10.900   1.766E+00
   11.000   1.826E+00
   11.100   1.886E+00
   11.200   1.948E+00
   11.300   2.011E+00
   11.400   2.076E+00
   11.500   2.143E+00
   11.600   2.212E+00
   11.700   2.282E+00
   11.800   2.356E+00
   11.900   2.432E+00
   12.000   2.511E+00
   12.100   2.593E+00
   12.200   2.679E+00
   12.300   2.770E+00
   12.400   2.864E+00
   12.500   2.964E+00
   12.600   3.069E+00
   12.700   3.180E+00
   12.800   3.297E+00
   12.900   3.421E+00
   13.000   3.552E+00
   13.100   3.691E+00
   13.200   3.838E+00
   13.300   3.994E+00
   13.400   4.158E+00
   13.500   4.332E+00
   13.600   4.516E+00
   13.700   4.710E+00
   13.800   4.915E+00
   13.900   5.130E+00
   14.000   5.356E+00
   14.100   5.594E+00
   14.200   5.842E+00
   14.300   6.101E+00
   14.400   6.370E+00
   14.500   6.649E+00
   14.600   6.937E+00
   14.700   7.233E+00
   14.800   7.536E+00
   14.900   7.844E+00
   15.000   8.156E+00
   15.100   8.468E+00
   15.200   8.779E+00
   15.300   9.086E+00
   15.400   9.385E+00
   15.500   9.674E+00
   15.600   9.948E+00
   15.700   1.021E+01
   15.800   1.044E+01
   15.900   1.065E+01
   16.000   1.084E+01
   16.100   1.099E+01
   16.200   1.112E+01
   16.300   1.121E+01
   16.400   1.126E+01
   16.500   1.128E+01
   16.600   1.127E+01
   16.700   1.122E+01
   16.800   1.115E+01
   16.900   1.104E+01
   17.000   1.090E+01
   17.100   1.074E+01
   17.200   1.056E+01
   17.300   1.036E+01
   17.400   1.015E+01
   17.500   9.918E+00
   17.600   9.679E+00
   17.700   9.432E+00
   17.800   9.179E+00
   17.900   8.923E+00
   18.000   8.666E+00
   18.100   8.408E+00
   18.200   8.152E+00
   18.300   7.898E+00
   18.400   7.648E+00
   18.500   7.403E+00
   18.600   7.163E+00
   18.700   6.928E+00
   18.800   6.699E+00
   18.900   6.477E+00
   19.000   6.262E+00
   19.100   6.053E+00
   19.200   5.852E+00
   19.300   5.658E+00
   19.400   5.470E+00
   19.500   5.290E+00
   19.600   5.116E+00
   19.700   4.950E+00
   19.800   4.790E+00
   19.900   4.636E+00
   20.000   4.489E+00
   20.100   4.347E+00
   20.200   4.212E+00
   20.300   4.082E+00
   20.400   3.958E+00
   20.500   3.839E+00
   20.600   3.725E+00
   20.700   3.615E+00
   20.800   3.511E+00
   20.900   3.410E+00
   21.000   3.314E+00
   21.100   3.222E+00
   21.200   3.133E+00
   21.300   3.049E+00
   21.400   2.967E+00
   21.500   2.889E+00
   21.600   2.815E+00
   21.700   2.743E+00
   21.800   2.674E+00
   21.900   2.607E+00
   22.000   2.543E+00
   22.100   2.482E+00
   22.200   2.423E+00
   22.300   2.366E+00
   22.400   2.310E+00
   22.500   2.257E+00
   22.600   2.206E+00
   22.700   2.156E+00
   22.800   2.107E+00
   22.900   2.060E+00
   23.000   2.014E+00
   23.100   1.970E+00
   23.200   1.927E+00
   23.300   1.885E+00
   23.400   1.844E+00
   23.500   1.804E+00
   23.600   1.766E+00
   23.700   1.728E+00
   23.800   1.691E+00
   23.900   1.656E+00
   24.000   1.621E+00
   24.100   1.587E+00
   24.200   1.555E+00
   24.300   1.523E+00
   24.400   1.492E+00
   24.500   1.462E+00
   24.600   1.433E+00
   24.700   1.405E+00
   24.800   1.377E+00
   24.900   1.351E+00
   25.000   1.325E+00
   25.100   1.300E+00
   25.200   1.275E+00
   25.300   1.252E+00
   25.400   1.229E+00
   25.500   1.207E+00
   25.600   1.185E+00
   25.700   1.164E+00
   25.800   1.144E+00
   25.900   1.124E+00
   26.000   1.105E+00
   26.100   1.086E+00
   26.200   1.068E+00
   26.300   1.050E+00
   26.400   1.033E+00
   26.500   1.016E+00
   26.600   1.000E+00
   26.700   9.844E-01
   26.800   9.689E-01
   26.900   9.539E-01
   27.000   9.393E-01
   27.100   9.250E-01
   27.200   9.111E-01
   27.300   8.975E-01
   27.400   8.842E-01
   27.500   8.713E-01
   27.600   8.586E-01
   27.700   8.462E-01
   27.800   8.341E-01
   27.900   8.223E-01
   28.000   8.107E-01
   28.100   7.993E-01
   28.200   7.882E-01
   28.300   7.773E-01
   28.400   7.667E-01
   28.500   7.562E-01
   28.600   7.460E-01
   28.700   7.360E-01
   28.800   7.262E-01
   28.900   7.165E-01
   29.000   7.071E-01
   29.100   6.979E-01
   29.200   6.888E-01
   29.300   6.800E-01
   29.400   6.713E-01
   29.500   6.628E-01
   29.600   6.545E-01
   29.700   6.463E-01
   29.800   6.383E-01
   29.900   6.305E-01
   30.000   6.228E-01
 
 Z=  40 A=  93  D1M-QRPA-Inter
 E[MeV]  fQRPA[mb/MeV]
    0.100   5.315E-05
    0.200   2.127E-04
    0.300   4.788E-04
    0.400   8.518E-04
    0.500   1.332E-03
    0.600   1.920E-03
    0.700   2.617E-03
    0.800   3.423E-03
    0.900   4.340E-03
    1.000   5.369E-03
    1.100   6.510E-03
    1.200   7.765E-03
    1.300   9.137E-03
    1.400   1.063E-02
    1.500   1.223E-02
    1.600   1.396E-02
    1.700   1.582E-02
    1.800   1.780E-02
    1.900   1.990E-02
    2.000   2.214E-02
    2.100   2.451E-02
    2.200   2.703E-02
    2.300   2.968E-02
    2.400   3.247E-02
    2.500   3.541E-02
    2.600   3.851E-02
    2.700   4.176E-02
    2.800   4.517E-02
    2.900   4.875E-02
    3.000   5.250E-02
    3.100   5.643E-02
    3.200   6.054E-02
    3.300   6.483E-02
    3.400   6.933E-02
    3.500   7.402E-02
    3.600   7.892E-02
    3.700   8.404E-02
    3.800   8.938E-02
    3.900   9.496E-02
    4.000   1.008E-01
    4.100   1.069E-01
    4.200   1.132E-01
    4.300   1.198E-01
    4.400   1.267E-01
    4.500   1.339E-01
    4.600   1.414E-01
    4.700   1.492E-01
    4.800   1.573E-01
    4.900   1.658E-01
    5.000   1.747E-01
    5.100   1.840E-01
    5.200   1.936E-01
    5.300   2.037E-01
    5.400   2.141E-01
    5.500   2.251E-01
    5.600   2.365E-01
    5.700   2.484E-01
    5.800   2.608E-01
    5.900   2.737E-01
    6.000   2.872E-01
    6.100   3.012E-01
    6.200   3.158E-01
    6.300   3.311E-01
    6.400   3.470E-01
    6.500   3.635E-01
    6.600   3.808E-01
    6.700   3.987E-01
    6.800   4.174E-01
    6.900   4.369E-01
    7.000   4.571E-01
    7.100   4.782E-01
    7.200   5.001E-01
    7.300   5.229E-01
    7.400   5.467E-01
    7.500   5.713E-01
    7.600   5.970E-01
    7.700   6.236E-01
    7.800   6.513E-01
    7.900   6.801E-01
    8.000   7.100E-01
    8.100   7.409E-01
    8.200   7.730E-01
    8.300   8.063E-01
    8.400   8.408E-01
    8.500   8.765E-01
    8.600   9.133E-01
    8.700   9.515E-01
    8.800   9.908E-01
    8.900   1.031E+00
    9.000   1.073E+00
    9.100   1.116E+00
    9.200   1.161E+00
    9.300   1.206E+00
    9.400   1.253E+00
    9.500   1.301E+00
    9.600   1.350E+00
    9.700   1.401E+00
    9.800   1.452E+00
    9.900   1.505E+00
   10.000   1.559E+00
   10.100   1.614E+00
   10.200   1.670E+00
   10.300   1.727E+00
   10.400   1.785E+00
   10.500   1.845E+00
   10.600   1.906E+00
   10.700   1.968E+00
   10.800   2.032E+00
   10.900   2.097E+00
   11.000   2.164E+00
   11.100   2.233E+00
   11.200   2.304E+00
   11.300   2.377E+00
   11.400   2.453E+00
   11.500   2.531E+00
   11.600   2.613E+00
   11.700   2.699E+00
   11.800   2.788E+00
   11.900   2.881E+00
   12.000   2.979E+00
   12.100   3.082E+00
   12.200   3.190E+00
   12.300   3.304E+00
   12.400   3.424E+00
   12.500   3.551E+00
   12.600   3.685E+00
   12.700   3.826E+00
   12.800   3.974E+00
   12.900   4.131E+00
   13.000   4.296E+00
   13.100   4.469E+00
   13.200   4.651E+00
   13.300   4.842E+00
   13.400   5.043E+00
   13.500   5.252E+00
   13.600   5.470E+00
   13.700   5.697E+00
   13.800   5.933E+00
   13.900   6.177E+00
   14.000   6.428E+00
   14.100   6.687E+00
   14.200   6.951E+00
   14.300   7.221E+00
   14.400   7.495E+00
   14.500   7.772E+00
   14.600   8.050E+00
   14.700   8.328E+00
   14.800   8.604E+00
   14.900   8.877E+00
   15.000   9.144E+00
   15.100   9.404E+00
   15.200   9.655E+00
   15.300   9.893E+00
   15.400   1.012E+01
   15.500   1.033E+01
   15.600   1.052E+01
   15.700   1.069E+01
   15.800   1.084E+01
   15.900   1.096E+01
   16.000   1.106E+01
   16.100   1.114E+01
   16.200   1.118E+01
   16.300   1.119E+01
   16.400   1.118E+01
   16.500   1.114E+01
   16.600   1.107E+01
   16.700   1.097E+01
   16.800   1.085E+01
   16.900   1.070E+01
   17.000   1.054E+01
   17.100   1.035E+01
   17.200   1.015E+01
   17.300   9.933E+00
   17.400   9.706E+00
   17.500   9.471E+00
   17.600   9.229E+00
   17.700   8.983E+00
   17.800   8.735E+00
   17.900   8.486E+00
   18.000   8.237E+00
   18.100   7.991E+00
   18.200   7.748E+00
   18.300   7.508E+00
   18.400   7.273E+00
   18.500   7.043E+00
   18.600   6.819E+00
   18.700   6.601E+00
   18.800   6.389E+00
   18.900   6.184E+00
   19.000   5.985E+00
   19.100   5.792E+00
   19.200   5.606E+00
   19.300   5.427E+00
   19.400   5.255E+00
   19.500   5.089E+00
   19.600   4.929E+00
   19.700   4.776E+00
   19.800   4.629E+00
   19.900   4.488E+00
   20.000   4.353E+00
   20.100   4.224E+00
   20.200   4.100E+00
   20.300   3.981E+00
   20.400   3.868E+00
   20.500   3.759E+00
   20.600   3.655E+00
   20.700   3.556E+00
   20.800   3.461E+00
   20.900   3.370E+00
   21.000   3.282E+00
   21.100   3.198E+00
   21.200   3.118E+00
   21.300   3.041E+00
   21.400   2.967E+00
   21.500   2.895E+00
   21.600   2.827E+00
   21.700   2.760E+00
   21.800   2.696E+00
   21.900   2.635E+00
   22.000   2.575E+00
   22.100   2.517E+00
   22.200   2.461E+00
   22.300   2.406E+00
   22.400   2.354E+00
   22.500   2.302E+00
   22.600   2.252E+00
   22.700   2.203E+00
   22.800   2.156E+00
   22.900   2.110E+00
   23.000   2.065E+00
   23.100   2.021E+00
   23.200   1.979E+00
   23.300   1.937E+00
   23.400   1.897E+00
   23.500   1.857E+00
   23.600   1.819E+00
   23.700   1.782E+00
   23.800   1.746E+00
   23.900   1.710E+00
   24.000   1.676E+00
   24.100   1.643E+00
   24.200   1.610E+00
   24.300   1.578E+00
   24.400   1.548E+00
   24.500   1.518E+00
   24.600   1.489E+00
   24.700   1.461E+00
   24.800   1.433E+00
   24.900   1.406E+00
   25.000   1.380E+00
   25.100   1.355E+00
   25.200   1.330E+00
   25.300   1.306E+00
   25.400   1.283E+00
   25.500   1.260E+00
   25.600   1.238E+00
   25.700   1.216E+00
   25.800   1.195E+00
   25.900   1.174E+00
   26.000   1.154E+00
   26.100   1.134E+00
   26.200   1.115E+00
   26.300   1.096E+00
   26.400   1.078E+00
   26.500   1.060E+00
   26.600   1.042E+00
   26.700   1.025E+00
   26.800   1.008E+00
   26.900   9.918E-01
   27.000   9.758E-01
   27.100   9.602E-01
   27.200   9.450E-01
   27.300   9.301E-01
   27.400   9.155E-01
   27.500   9.014E-01
   27.600   8.875E-01
   27.700   8.740E-01
   27.800   8.608E-01
   27.900   8.479E-01
   28.000   8.353E-01
   28.100   8.230E-01
   28.200   8.110E-01
   28.300   7.992E-01
   28.400   7.878E-01
   28.500   7.766E-01
   28.600   7.656E-01
   28.700   7.549E-01
   28.800   7.445E-01
   28.900   7.343E-01
   29.000   7.243E-01
   29.100   7.145E-01
   29.200   7.050E-01
   29.300   6.957E-01
   29.400   6.866E-01
   29.500   6.776E-01
   29.600   6.689E-01
   29.700   6.604E-01
   29.800   6.520E-01
   29.900   6.438E-01
   30.000   6.358E-01
 
 Z=  40 A=  94  D1M-QRPA
   E[MeV]   fQRPA[mb/MeV]
    0.100   6.237E-05
    0.200   2.496E-04
    0.300   5.618E-04
    0.400   9.996E-04
    0.500   1.563E-03
    0.600   2.254E-03
    0.700   3.073E-03
    0.800   4.020E-03
    0.900   5.098E-03
    1.000   6.308E-03
    1.100   7.651E-03
    1.200   9.129E-03
    1.300   1.075E-02
    1.400   1.250E-02
    1.500   1.440E-02
    1.600   1.644E-02
    1.700   1.863E-02
    1.800   2.098E-02
    1.900   2.347E-02
    2.000   2.613E-02
    2.100   2.895E-02
    2.200   3.193E-02
    2.300   3.509E-02
    2.400   3.842E-02
    2.500   4.193E-02
    2.600   4.563E-02
    2.700   4.953E-02
    2.800   5.362E-02
    2.900   5.792E-02
    3.000   6.244E-02
    3.100   6.717E-02
    3.200   7.214E-02
    3.300   7.734E-02
    3.400   8.279E-02
    3.500   8.850E-02
    3.600   9.447E-02
    3.700   1.007E-01
    3.800   1.073E-01
    3.900   1.141E-01
    4.000   1.213E-01
    4.100   1.288E-01
    4.200   1.366E-01
    4.300   1.448E-01
    4.400   1.534E-01
    4.500   1.623E-01
    4.600   1.717E-01
    4.700   1.815E-01
    4.800   1.918E-01
    4.900   2.025E-01
    5.000   2.137E-01
    5.100   2.255E-01
    5.200   2.378E-01
    5.300   2.506E-01
    5.400   2.640E-01
    5.500   2.780E-01
    5.600   2.927E-01
    5.700   3.080E-01
    5.800   3.240E-01
    5.900   3.407E-01
    6.000   3.581E-01
    6.100   3.763E-01
    6.200   3.952E-01
    6.300   4.150E-01
    6.400   4.356E-01
    6.500   4.570E-01
    6.600   4.793E-01
    6.700   5.025E-01
    6.800   5.266E-01
    6.900   5.516E-01
    7.000   5.776E-01
    7.100   6.046E-01
    7.200   6.326E-01
    7.300   6.617E-01
    7.400   6.917E-01
    7.500   7.229E-01
    7.600   7.552E-01
    7.700   7.885E-01
    7.800   8.230E-01
    7.900   8.586E-01
    8.000   8.954E-01
    8.100   9.333E-01
    8.200   9.724E-01
    8.300   1.013E+00
    8.400   1.054E+00
    8.500   1.097E+00
    8.600   1.140E+00
    8.700   1.185E+00
    8.800   1.231E+00
    8.900   1.279E+00
    9.000   1.327E+00
    9.100   1.377E+00
    9.200   1.427E+00
    9.300   1.479E+00
    9.400   1.532E+00
    9.500   1.587E+00
    9.600   1.642E+00
    9.700   1.699E+00
    9.800   1.757E+00
    9.900   1.816E+00
   10.000   1.876E+00
   10.100   1.937E+00
   10.200   1.999E+00
   10.300   2.063E+00
   10.400   2.127E+00
   10.500   2.193E+00
   10.600   2.261E+00
   10.700   2.330E+00
   10.800   2.401E+00
   10.900   2.474E+00
   11.000   2.549E+00
   11.100   2.627E+00
   11.200   2.708E+00
   11.300   2.792E+00
   11.400   2.880E+00
   11.500   2.972E+00
   11.600   3.069E+00
   11.700   3.171E+00
   11.800   3.279E+00
   11.900   3.393E+00
   12.000   3.513E+00
   12.100   3.641E+00
   12.200   3.775E+00
   12.300   3.918E+00
   12.400   4.069E+00
   12.500   4.228E+00
   12.600   4.396E+00
   12.700   4.574E+00
   12.800   4.761E+00
   12.900   4.957E+00
   13.000   5.162E+00
   13.100   5.378E+00
   13.200   5.602E+00
   13.300   5.835E+00
   13.400   6.077E+00
   13.500   6.328E+00
   13.600   6.585E+00
   13.700   6.849E+00
   13.800   7.118E+00
   13.900   7.391E+00
   14.000   7.667E+00
   14.100   7.944E+00
   14.200   8.221E+00
   14.300   8.495E+00
   14.400   8.765E+00
   14.500   9.028E+00
   14.600   9.284E+00
   14.700   9.529E+00
   14.800   9.763E+00
   14.900   9.983E+00
   15.000   1.019E+01
   15.100   1.038E+01
   15.200   1.055E+01
   15.300   1.071E+01
   15.400   1.084E+01
   15.500   1.096E+01
   15.600   1.105E+01
   15.700   1.113E+01
   15.800   1.118E+01
   15.900   1.122E+01
   16.000   1.122E+01
   16.100   1.121E+01
   16.200   1.117E+01
   16.300   1.112E+01
   16.400   1.103E+01
   16.500   1.093E+01
   16.600   1.080E+01
   16.700   1.066E+01
   16.800   1.049E+01
   16.900   1.031E+01
   17.000   1.012E+01
   17.100   9.910E+00
   17.200   9.690E+00
   17.300   9.462E+00
   17.400   9.228E+00
   17.500   8.988E+00
   17.600   8.746E+00
   17.700   8.503E+00
   17.800   8.261E+00
   17.900   8.020E+00
   18.000   7.782E+00
   18.100   7.548E+00
   18.200   7.318E+00
   18.300   7.093E+00
   18.400   6.874E+00
   18.500   6.660E+00
   18.600   6.453E+00
   18.700   6.251E+00
   18.800   6.056E+00
   18.900   5.867E+00
   19.000   5.684E+00
   19.100   5.508E+00
   19.200   5.338E+00
   19.300   5.174E+00
   19.400   5.017E+00
   19.500   4.865E+00
   19.600   4.720E+00
   19.700   4.580E+00
   19.800   4.446E+00
   19.900   4.318E+00
   20.000   4.196E+00
   20.100   4.078E+00
   20.200   3.966E+00
   20.300   3.859E+00
   20.400   3.757E+00
   20.500   3.659E+00
   20.600   3.565E+00
   20.700   3.476E+00
   20.800   3.391E+00
   20.900   3.309E+00
   21.000   3.231E+00
   21.100   3.156E+00
   21.200   3.084E+00
   21.300   3.014E+00
   21.400   2.948E+00
   21.500   2.883E+00
   21.600   2.821E+00
   21.700   2.761E+00
   21.800   2.703E+00
   21.900   2.646E+00
   22.000   2.591E+00
   22.100   2.537E+00
   22.200   2.484E+00
   22.300   2.433E+00
   22.400   2.383E+00
   22.500   2.334E+00
   22.600   2.285E+00
   22.700   2.238E+00
   22.800   2.192E+00
   22.900   2.148E+00
   23.000   2.104E+00
   23.100   2.061E+00
   23.200   2.019E+00
   23.300   1.978E+00
   23.400   1.939E+00
   23.500   1.900E+00
   23.600   1.863E+00
   23.700   1.826E+00
   23.800   1.790E+00
   23.900   1.756E+00
   24.000   1.722E+00
   24.100   1.689E+00
   24.200   1.657E+00
   24.300   1.626E+00
   24.400   1.596E+00
   24.500   1.566E+00
   24.600   1.537E+00
   24.700   1.509E+00
   24.800   1.482E+00
   24.900   1.455E+00
   25.000   1.429E+00
   25.100   1.404E+00
   25.200   1.379E+00
   25.300   1.354E+00
   25.400   1.331E+00
   25.500   1.307E+00
   25.600   1.284E+00
   25.700   1.262E+00
   25.800   1.240E+00
   25.900   1.219E+00
   26.000   1.198E+00
   26.100   1.177E+00
   26.200   1.157E+00
   26.300   1.137E+00
   26.400   1.117E+00
   26.500   1.098E+00
   26.600   1.079E+00
   26.700   1.061E+00
   26.800   1.043E+00
   26.900   1.025E+00
   27.000   1.008E+00
   27.100   9.906E-01
   27.200   9.741E-01
   27.300   9.579E-01
   27.400   9.421E-01
   27.500   9.268E-01
   27.600   9.117E-01
   27.700   8.971E-01
   27.800   8.828E-01
   27.900   8.689E-01
   28.000   8.553E-01
   28.100   8.421E-01
   28.200   8.293E-01
   28.300   8.167E-01
   28.400   8.045E-01
   28.500   7.926E-01
   28.600   7.810E-01
   28.700   7.696E-01
   28.800   7.586E-01
   28.900   7.478E-01
   29.000   7.373E-01
   29.100   7.271E-01
   29.200   7.171E-01
   29.300   7.074E-01
   29.400   6.978E-01
   29.500   6.885E-01
   29.600   6.795E-01
   29.700   6.706E-01
   29.800   6.619E-01
   29.900   6.534E-01
   30.000   6.451E-01
 
 Z=  40 A=  95  D1M-QRPA-Inter
 E[MeV]  fQRPA[mb/MeV]
    0.100   6.278E-05
    0.200   2.512E-04
    0.300   5.655E-04
    0.400   1.006E-03
    0.500   1.574E-03
    0.600   2.269E-03
    0.700   3.093E-03
    0.800   4.047E-03
    0.900   5.133E-03
    1.000   6.351E-03
    1.100   7.703E-03
    1.200   9.192E-03
    1.300   1.082E-02
    1.400   1.259E-02
    1.500   1.450E-02
    1.600   1.656E-02
    1.700   1.877E-02
    1.800   2.113E-02
    1.900   2.364E-02
    2.000   2.632E-02
    2.100   2.916E-02
    2.200   3.217E-02
    2.300   3.535E-02
    2.400   3.871E-02
    2.500   4.226E-02
    2.600   4.599E-02
    2.700   4.992E-02
    2.800   5.406E-02
    2.900   5.840E-02
    3.000   6.296E-02
    3.100   6.774E-02
    3.200   7.276E-02
    3.300   7.802E-02
    3.400   8.353E-02
    3.500   8.931E-02
    3.600   9.535E-02
    3.700   1.017E-01
    3.800   1.083E-01
    3.900   1.153E-01
    4.000   1.225E-01
    4.100   1.301E-01
    4.200   1.381E-01
    4.300   1.464E-01
    4.400   1.551E-01
    4.500   1.642E-01
    4.600   1.738E-01
    4.700   1.838E-01
    4.800   1.942E-01
    4.900   2.052E-01
    5.000   2.166E-01
    5.100   2.286E-01
    5.200   2.412E-01
    5.300   2.544E-01
    5.400   2.681E-01
    5.500   2.825E-01
    5.600   2.976E-01
    5.700   3.134E-01
    5.800   3.300E-01
    5.900   3.472E-01
    6.000   3.653E-01
    6.100   3.842E-01
    6.200   4.039E-01
    6.300   4.245E-01
    6.400   4.460E-01
    6.500   4.684E-01
    6.600   4.918E-01
    6.700   5.161E-01
    6.800   5.414E-01
    6.900   5.677E-01
    7.000   5.951E-01
    7.100   6.236E-01
    7.200   6.531E-01
    7.300   6.838E-01
    7.400   7.157E-01
    7.500   7.488E-01
    7.600   7.831E-01
    7.700   8.188E-01
    7.800   8.558E-01
    7.900   8.942E-01
    8.000   9.340E-01
    8.100   9.753E-01
    8.200   1.018E+00
    8.300   1.062E+00
    8.400   1.108E+00
    8.500   1.156E+00
    8.600   1.205E+00
    8.700   1.255E+00
    8.800   1.308E+00
    8.900   1.361E+00
    9.000   1.416E+00
    9.100   1.473E+00
    9.200   1.531E+00
    9.300   1.590E+00
    9.400   1.650E+00
    9.500   1.711E+00
    9.600   1.774E+00
    9.700   1.837E+00
    9.800   1.901E+00
    9.900   1.965E+00
   10.000   2.030E+00
   10.100   2.095E+00
   10.200   2.161E+00
   10.300   2.228E+00
   10.400   2.295E+00
   10.500   2.362E+00
   10.600   2.431E+00
   10.700   2.501E+00
   10.800   2.573E+00
   10.900   2.647E+00
   11.000   2.723E+00
   11.100   2.802E+00
   11.200   2.884E+00
   11.300   2.971E+00
   11.400   3.061E+00
   11.500   3.157E+00
   11.600   3.259E+00
   11.700   3.366E+00
   11.800   3.481E+00
   11.900   3.603E+00
   12.000   3.733E+00
   12.100   3.871E+00
   12.200   4.019E+00
   12.300   4.176E+00
   12.400   4.343E+00
   12.500   4.521E+00
   12.600   4.710E+00
   12.700   4.910E+00
   12.800   5.122E+00
   12.900   5.345E+00
   13.000   5.581E+00
   13.100   5.828E+00
   13.200   6.088E+00
   13.300   6.358E+00
   13.400   6.640E+00
   13.500   6.932E+00
   13.600   7.233E+00
   13.700   7.542E+00
   13.800   7.858E+00
   13.900   8.179E+00
   14.000   8.504E+00
   14.100   8.829E+00
   14.200   9.153E+00
   14.300   9.472E+00
   14.400   9.785E+00
   14.500   1.009E+01
   14.600   1.038E+01
   14.700   1.065E+01
   14.800   1.090E+01
   14.900   1.113E+01
   15.000   1.134E+01
   15.100   1.152E+01
   15.200   1.167E+01
   15.300   1.178E+01
   15.400   1.187E+01
   15.500   1.192E+01
   15.600   1.194E+01
   15.700   1.193E+01
   15.800   1.188E+01
   15.900   1.181E+01
   16.000   1.171E+01
   16.100   1.158E+01
   16.200   1.142E+01
   16.300   1.124E+01
   16.400   1.105E+01
   16.500   1.083E+01
   16.600   1.061E+01
   16.700   1.037E+01
   16.800   1.012E+01
   16.900   9.858E+00
   17.000   9.595E+00
   17.100   9.328E+00
   17.200   9.061E+00
   17.300   8.793E+00
   17.400   8.527E+00
   17.500   8.264E+00
   17.600   8.006E+00
   17.700   7.752E+00
   17.800   7.503E+00
   17.900   7.262E+00
   18.000   7.026E+00
   18.100   6.798E+00
   18.200   6.578E+00
   18.300   6.365E+00
   18.400   6.160E+00
   18.500   5.962E+00
   18.600   5.772E+00
   18.700   5.589E+00
   18.800   5.414E+00
   18.900   5.246E+00
   19.000   5.085E+00
   19.100   4.931E+00
   19.200   4.783E+00
   19.300   4.642E+00
   19.400   4.507E+00
   19.500   4.378E+00
   19.600   4.255E+00
   19.700   4.137E+00
   19.800   4.024E+00
   19.900   3.916E+00
   20.000   3.813E+00
   20.100   3.715E+00
   20.200   3.620E+00
   20.300   3.530E+00
   20.400   3.444E+00
   20.500   3.361E+00
   20.600   3.281E+00
   20.700   3.205E+00
   20.800   3.132E+00
   20.900   3.061E+00
   21.000   2.993E+00
   21.100   2.927E+00
   21.200   2.864E+00
   21.300   2.802E+00
   21.400   2.743E+00
   21.500   2.684E+00
   21.600   2.628E+00
   21.700   2.573E+00
   21.800   2.519E+00
   21.900   2.466E+00
   22.000   2.414E+00
   22.100   2.364E+00
   22.200   2.314E+00
   22.300   2.265E+00
   22.400   2.218E+00
   22.500   2.171E+00
   22.600   2.126E+00
   22.700   2.081E+00
   22.800   2.037E+00
   22.900   1.994E+00
   23.000   1.952E+00
   23.100   1.912E+00
   23.200   1.872E+00
   23.300   1.833E+00
   23.400   1.795E+00
   23.500   1.758E+00
   23.600   1.721E+00
   23.700   1.686E+00
   23.800   1.651E+00
   23.900   1.618E+00
   24.000   1.585E+00
   24.100   1.553E+00
   24.200   1.522E+00
   24.300   1.491E+00
   24.400   1.461E+00
   24.500   1.433E+00
   24.600   1.405E+00
   24.700   1.377E+00
   24.800   1.351E+00
   24.900   1.325E+00
   25.000   1.300E+00
   25.100   1.275E+00
   25.200   1.251E+00
   25.300   1.228E+00
   25.400   1.206E+00
   25.500   1.184E+00
   25.600   1.162E+00
   25.700   1.142E+00
   25.800   1.121E+00
   25.900   1.101E+00
   26.000   1.082E+00
   26.100   1.063E+00
   26.200   1.045E+00
   26.300   1.027E+00
   26.400   1.009E+00
   26.500   9.922E-01
   26.600   9.755E-01
   26.700   9.592E-01
   26.800   9.433E-01
   26.900   9.278E-01
   27.000   9.126E-01
   27.100   8.978E-01
   27.200   8.834E-01
   27.300   8.694E-01
   27.400   8.557E-01
   27.500   8.423E-01
   27.600   8.293E-01
   27.700   8.166E-01
   27.800   8.042E-01
   27.900   7.921E-01
   28.000   7.804E-01
   28.100   7.689E-01
   28.200   7.577E-01
   28.300   7.468E-01
   28.400   7.361E-01
   28.500   7.257E-01
   28.600   7.156E-01
   28.700   7.057E-01
   28.800   6.960E-01
   28.900   6.866E-01
   29.000   6.774E-01
   29.100   6.684E-01
   29.200   6.596E-01
   29.300   6.510E-01
   29.400   6.426E-01
   29.500   6.344E-01
   29.600   6.264E-01
   29.700   6.185E-01
   29.800   6.108E-01
   29.900   6.033E-01
   30.000   5.959E-01
 
 Z=  40 A=  96  D1M-QRPA
   E[MeV]   fQRPA[mb/MeV]
    0.100   6.273E-05
    0.200   2.510E-04
    0.300   5.651E-04
    0.400   1.005E-03
    0.500   1.573E-03
    0.600   2.268E-03
    0.700   3.091E-03
    0.800   4.045E-03
    0.900   5.130E-03
    1.000   6.347E-03
    1.100   7.699E-03
    1.200   9.188E-03
    1.300   1.081E-02
    1.400   1.258E-02
    1.500   1.450E-02
    1.600   1.655E-02
    1.700   1.876E-02
    1.800   2.112E-02
    1.900   2.364E-02
    2.000   2.632E-02
    2.100   2.916E-02
    2.200   3.218E-02
    2.300   3.536E-02
    2.400   3.873E-02
    2.500   4.228E-02
    2.600   4.602E-02
    2.700   4.996E-02
    2.800   5.410E-02
    2.900   5.845E-02
    3.000   6.302E-02
    3.100   6.782E-02
    3.200   7.286E-02
    3.300   7.814E-02
    3.400   8.367E-02
    3.500   8.947E-02
    3.600   9.554E-02
    3.700   1.019E-01
    3.800   1.086E-01
    3.900   1.155E-01
    4.000   1.229E-01
    4.100   1.305E-01
    4.200   1.385E-01
    4.300   1.469E-01
    4.400   1.557E-01
    4.500   1.649E-01
    4.600   1.746E-01
    4.700   1.847E-01
    4.800   1.952E-01
    4.900   2.063E-01
    5.000   2.180E-01
    5.100   2.301E-01
    5.200   2.429E-01
    5.300   2.563E-01
    5.400   2.703E-01
    5.500   2.851E-01
    5.600   3.005E-01
    5.700   3.166E-01
    5.800   3.336E-01
    5.900   3.513E-01
    6.000   3.699E-01
    6.100   3.894E-01
    6.200   4.098E-01
    6.300   4.311E-01
    6.400   4.534E-01
    6.500   4.766E-01
    6.600   5.009E-01
    6.700   5.262E-01
    6.800   5.526E-01
    6.900   5.800E-01
    7.000   6.086E-01
    7.100   6.384E-01
    7.200   6.693E-01
    7.300   7.015E-01
    7.400   7.350E-01
    7.500   7.699E-01
    7.600   8.062E-01
    7.700   8.440E-01
    7.800   8.834E-01
    7.900   9.244E-01
    8.000   9.672E-01
    8.100   1.012E+00
    8.200   1.058E+00
    8.300   1.107E+00
    8.400   1.157E+00
    8.500   1.209E+00
    8.600   1.264E+00
    8.700   1.320E+00
    8.800   1.378E+00
    8.900   1.439E+00
    9.000   1.501E+00
    9.100   1.564E+00
    9.200   1.630E+00
    9.300   1.696E+00
    9.400   1.764E+00
    9.500   1.832E+00
    9.600   1.902E+00
    9.700   1.971E+00
    9.800   2.041E+00
    9.900   2.111E+00
   10.000   2.181E+00
   10.100   2.250E+00
   10.200   2.319E+00
   10.300   2.388E+00
   10.400   2.457E+00
   10.500   2.526E+00
   10.600   2.595E+00
   10.700   2.666E+00
   10.800   2.737E+00
   10.900   2.811E+00
   11.000   2.887E+00
   11.100   2.967E+00
   11.200   3.050E+00
   11.300   3.138E+00
   11.400   3.230E+00
   11.500   3.329E+00
   11.600   3.435E+00
   11.700   3.547E+00
   11.800   3.668E+00
   11.900   3.798E+00
   12.000   3.937E+00
   12.100   4.086E+00
   12.200   4.246E+00
   12.300   4.418E+00
   12.400   4.602E+00
   12.500   4.798E+00
   12.600   5.008E+00
   12.700   5.232E+00
   12.800   5.470E+00
   12.900   5.722E+00
   13.000   5.989E+00
   13.100   6.271E+00
   13.200   6.567E+00
   13.300   6.877E+00
   13.400   7.201E+00
   13.500   7.538E+00
   13.600   7.886E+00
   13.700   8.245E+00
   13.800   8.612E+00
   13.900   8.985E+00
   14.000   9.363E+00
   14.100   9.741E+00
   14.200   1.012E+01
   14.300   1.049E+01
   14.400   1.084E+01
   14.500   1.119E+01
   14.600   1.151E+01
   14.700   1.181E+01
   14.800   1.209E+01
   14.900   1.233E+01
   15.000   1.253E+01
   15.100   1.269E+01
   15.200   1.280E+01
   15.300   1.287E+01
   15.400   1.290E+01
   15.500   1.287E+01
   15.600   1.281E+01
   15.700   1.269E+01
   15.800   1.254E+01
   15.900   1.235E+01
   16.000   1.212E+01
   16.100   1.187E+01
   16.200   1.159E+01
   16.300   1.129E+01
   16.400   1.098E+01
   16.500   1.066E+01
   16.600   1.034E+01
   16.700   1.001E+01
   16.800   9.678E+00
   16.900   9.353E+00
   17.000   9.032E+00
   17.100   8.717E+00
   17.200   8.410E+00
   17.300   8.112E+00
   17.400   7.823E+00
   17.500   7.543E+00
   17.600   7.274E+00
   17.700   7.015E+00
   17.800   6.766E+00
   17.900   6.527E+00
   18.000   6.298E+00
   18.100   6.079E+00
   18.200   5.870E+00
   18.300   5.670E+00
   18.400   5.479E+00
   18.500   5.298E+00
   18.600   5.125E+00
   18.700   4.961E+00
   18.800   4.805E+00
   18.900   4.656E+00
   19.000   4.516E+00
   19.100   4.382E+00
   19.200   4.255E+00
   19.300   4.134E+00
   19.400   4.020E+00
   19.500   3.911E+00
   19.600   3.807E+00
   19.700   3.709E+00
   19.800   3.615E+00
   19.900   3.526E+00
   20.000   3.440E+00
   20.100   3.359E+00
   20.200   3.280E+00
   20.300   3.205E+00
   20.400   3.134E+00
   20.500   3.064E+00
   20.600   2.998E+00
   20.700   2.933E+00
   20.800   2.871E+00
   20.900   2.811E+00
   21.000   2.753E+00
   21.100   2.696E+00
   21.200   2.640E+00
   21.300   2.586E+00
   21.400   2.533E+00
   21.500   2.481E+00
   21.600   2.430E+00
   21.700   2.380E+00
   21.800   2.330E+00
   21.900   2.281E+00
   22.000   2.233E+00
   22.100   2.186E+00
   22.200   2.140E+00
   22.300   2.094E+00
   22.400   2.049E+00
   22.500   2.005E+00
   22.600   1.962E+00
   22.700   1.920E+00
   22.800   1.879E+00
   22.900   1.838E+00
   23.000   1.799E+00
   23.100   1.760E+00
   23.200   1.722E+00
   23.300   1.685E+00
   23.400   1.649E+00
   23.500   1.614E+00
   23.600   1.579E+00
   23.700   1.545E+00
   23.800   1.512E+00
   23.900   1.480E+00
   24.000   1.448E+00
   24.100   1.417E+00
   24.200   1.387E+00
   24.300   1.357E+00
   24.400   1.329E+00
   24.500   1.301E+00
   24.600   1.274E+00
   24.700   1.248E+00
   24.800   1.222E+00
   24.900   1.197E+00
   25.000   1.173E+00
   25.100   1.150E+00
   25.200   1.128E+00
   25.300   1.106E+00
   25.400   1.085E+00
   25.500   1.064E+00
   25.600   1.044E+00
   25.700   1.025E+00
   25.800   1.006E+00
   25.900   9.882E-01
   26.000   9.706E-01
   26.100   9.536E-01
   26.200   9.370E-01
   26.300   9.209E-01
   26.400   9.053E-01
   26.500   8.902E-01
   26.600   8.755E-01
   26.700   8.612E-01
   26.800   8.473E-01
   26.900   8.338E-01
   27.000   8.206E-01
   27.100   8.078E-01
   27.200   7.954E-01
   27.300   7.833E-01
   27.400   7.715E-01
   27.500   7.600E-01
   27.600   7.488E-01
   27.700   7.379E-01
   27.800   7.273E-01
   27.900   7.169E-01
   28.000   7.068E-01
   28.100   6.969E-01
   28.200   6.873E-01
   28.300   6.779E-01
   28.400   6.687E-01
   28.500   6.597E-01
   28.600   6.509E-01
   28.700   6.424E-01
   28.800   6.340E-01
   28.900   6.258E-01
   29.000   6.178E-01
   29.100   6.099E-01
   29.200   6.023E-01
   29.300   5.948E-01
   29.400   5.874E-01
   29.500   5.802E-01
   29.600   5.732E-01
   29.700   5.663E-01
   29.800   5.595E-01
   29.900   5.529E-01
   30.000   5.464E-01
 
 Z=  40 A=  97  D1M-QRPA-Inter
 E[MeV]  fQRPA[mb/MeV]
    0.100   7.422E-04
    0.200   2.947E-03
    0.300   6.550E-03
    0.400   1.145E-02
    0.500   1.753E-02
    0.600   2.463E-02
    0.700   3.263E-02
    0.800   4.136E-02
    0.900   5.069E-02
    1.000   6.051E-02
    1.100   7.069E-02
    1.200   8.116E-02
    1.300   9.182E-02
    1.400   1.026E-01
    1.500   1.135E-01
    1.600   1.244E-01
    1.700   1.354E-01
    1.800   1.463E-01
    1.900   1.572E-01
    2.000   1.680E-01
    2.100   1.788E-01
    2.200   1.896E-01
    2.300   2.002E-01
    2.400   2.109E-01
    2.500   2.214E-01
    2.600   2.320E-01
    2.700   2.425E-01
    2.800   2.529E-01
    2.900   2.634E-01
    3.000   2.738E-01
    3.100   2.843E-01
    3.200   2.948E-01
    3.300   3.053E-01
    3.400   3.159E-01
    3.500   3.265E-01
    3.600   3.373E-01
    3.700   3.481E-01
    3.800   3.591E-01
    3.900   3.703E-01
    4.000   3.816E-01
    4.100   3.931E-01
    4.200   4.049E-01
    4.300   4.169E-01
    4.400   4.291E-01
    4.500   4.417E-01
    4.600   4.546E-01
    4.700   4.679E-01
    4.800   4.816E-01
    4.900   4.957E-01
    5.000   5.102E-01
    5.100   5.253E-01
    5.200   5.408E-01
    5.300   5.570E-01
    5.400   5.737E-01
    5.500   5.910E-01
    5.600   6.090E-01
    5.700   6.278E-01
    5.800   6.472E-01
    5.900   6.674E-01
    6.000   6.885E-01
    6.100   7.104E-01
    6.200   7.332E-01
    6.300   7.569E-01
    6.400   7.815E-01
    6.500   8.071E-01
    6.600   8.338E-01
    6.700   8.615E-01
    6.800   8.903E-01
    6.900   9.202E-01
    7.000   9.512E-01
    7.100   9.835E-01
    7.200   1.017E+00
    7.300   1.052E+00
    7.400   1.088E+00
    7.500   1.126E+00
    7.600   1.165E+00
    7.700   1.205E+00
    7.800   1.248E+00
    7.900   1.292E+00
    8.000   1.338E+00
    8.100   1.385E+00
    8.200   1.435E+00
    8.300   1.487E+00
    8.400   1.540E+00
    8.500   1.596E+00
    8.600   1.654E+00
    8.700   1.714E+00
    8.800   1.776E+00
    8.900   1.840E+00
    9.000   1.907E+00
    9.100   1.975E+00
    9.200   2.046E+00
    9.300   2.118E+00
    9.400   2.193E+00
    9.500   2.269E+00
    9.600   2.347E+00
    9.700   2.427E+00
    9.800   2.508E+00
    9.900   2.591E+00
   10.000   2.675E+00
   10.100   2.761E+00
   10.200   2.848E+00
   10.300   2.936E+00
   10.400   3.026E+00
   10.500   3.118E+00
   10.600   3.212E+00
   10.700   3.309E+00
   10.800   3.408E+00
   10.900   3.510E+00
   11.000   3.615E+00
   11.100   3.725E+00
   11.200   3.838E+00
   11.300   3.957E+00
   11.400   4.080E+00
   11.500   4.209E+00
   11.600   4.344E+00
   11.700   4.486E+00
   11.800   4.635E+00
   11.900   4.791E+00
   12.000   4.954E+00
   12.100   5.126E+00
   12.200   5.306E+00
   12.300   5.495E+00
   12.400   5.692E+00
   12.500   5.898E+00
   12.600   6.114E+00
   12.700   6.338E+00
   12.800   6.571E+00
   12.900   6.813E+00
   13.000   7.063E+00
   13.100   7.321E+00
   13.200   7.586E+00
   13.300   7.857E+00
   13.400   8.134E+00
   13.500   8.415E+00
   13.600   8.700E+00
   13.700   8.986E+00
   13.800   9.273E+00
   13.900   9.557E+00
   14.000   9.839E+00
   14.100   1.011E+01
   14.200   1.038E+01
   14.300   1.064E+01
   14.400   1.089E+01
   14.500   1.112E+01
   14.600   1.133E+01
   14.700   1.152E+01
   14.800   1.169E+01
   14.900   1.184E+01
   15.000   1.196E+01
   15.100   1.205E+01
   15.200   1.212E+01
   15.300   1.215E+01
   15.400   1.216E+01
   15.500   1.213E+01
   15.600   1.208E+01
   15.700   1.199E+01
   15.800   1.189E+01
   15.900   1.175E+01
   16.000   1.160E+01
   16.100   1.142E+01
   16.200   1.123E+01
   16.300   1.102E+01
   16.400   1.080E+01
   16.500   1.057E+01
   16.600   1.033E+01
   16.700   1.009E+01
   16.800   9.842E+00
   16.900   9.593E+00
   17.000   9.344E+00
   17.100   9.095E+00
   17.200   8.848E+00
   17.300   8.604E+00
   17.400   8.364E+00
   17.500   8.128E+00
   17.600   7.896E+00
   17.700   7.669E+00
   17.800   7.448E+00
   17.900   7.233E+00
   18.000   7.023E+00
   18.100   6.820E+00
   18.200   6.623E+00
   18.300   6.432E+00
   18.400   6.247E+00
   18.500   6.069E+00
   18.600   5.897E+00
   18.700   5.731E+00
   18.800   5.571E+00
   18.900   5.418E+00
   19.000   5.270E+00
   19.100   5.128E+00
   19.200   4.992E+00
   19.300   4.860E+00
   19.400   4.734E+00
   19.500   4.613E+00
   19.600   4.497E+00
   19.700   4.385E+00
   19.800   4.278E+00
   19.900   4.175E+00
   20.000   4.075E+00
   20.100   3.979E+00
   20.200   3.887E+00
   20.300   3.798E+00
   20.400   3.712E+00
   20.500   3.629E+00
   20.600   3.549E+00
   20.700   3.472E+00
   20.800   3.397E+00
   20.900   3.324E+00
   21.000   3.254E+00
   21.100   3.185E+00
   21.200   3.119E+00
   21.300   3.054E+00
   21.400   2.991E+00
   21.500   2.929E+00
   21.600   2.869E+00
   21.700   2.810E+00
   21.800   2.753E+00
   21.900   2.696E+00
   22.000   2.642E+00
   22.100   2.588E+00
   22.200   2.535E+00
   22.300   2.484E+00
   22.400   2.434E+00
   22.500   2.385E+00
   22.600   2.337E+00
   22.700   2.291E+00
   22.800   2.245E+00
   22.900   2.201E+00
   23.000   2.158E+00
   23.100   2.115E+00
   23.200   2.074E+00
   23.300   2.034E+00
   23.400   1.995E+00
   23.500   1.956E+00
   23.600   1.919E+00
   23.700   1.882E+00
   23.800   1.846E+00
   23.900   1.811E+00
   24.000   1.777E+00
   24.100   1.744E+00
   24.200   1.711E+00
   24.300   1.680E+00
   24.400   1.649E+00
   24.500   1.619E+00
   24.600   1.589E+00
   24.700   1.561E+00
   24.800   1.533E+00
   24.900   1.506E+00
   25.000   1.480E+00
   25.100   1.454E+00
   25.200   1.429E+00
   25.300   1.405E+00
   25.400   1.382E+00
   25.500   1.359E+00
   25.600   1.336E+00
   25.700   1.315E+00
   25.800   1.294E+00
   25.900   1.273E+00
   26.000   1.253E+00
   26.100   1.234E+00
   26.200   1.215E+00
   26.300   1.196E+00
   26.400   1.178E+00
   26.500   1.160E+00
   26.600   1.143E+00
   26.700   1.127E+00
   26.800   1.110E+00
   26.900   1.094E+00
   27.000   1.079E+00
   27.100   1.064E+00
   27.200   1.049E+00
   27.300   1.034E+00
   27.400   1.020E+00
   27.500   1.006E+00
   27.600   9.929E-01
   27.700   9.797E-01
   27.800   9.669E-01
   27.900   9.542E-01
   28.000   9.419E-01
   28.100   9.298E-01
   28.200   9.180E-01
   28.300   9.065E-01
   28.400   8.952E-01
   28.500   8.841E-01
   28.600   8.732E-01
   28.700   8.626E-01
   28.800   8.522E-01
   28.900   8.420E-01
   29.000   8.320E-01
   29.100   8.222E-01
   29.200   8.126E-01
   29.300   8.031E-01
   29.400   7.939E-01
   29.500   7.848E-01
   29.600   7.759E-01
   29.700   7.672E-01
   29.800   7.586E-01
   29.900   7.502E-01
   30.000   7.419E-01
 
 Z=  40 A=  98  D1M-QRPA
   E[MeV]   fQRPA[mb/MeV]
    0.100   8.436E-03
    0.200   3.323E-02
    0.300   7.292E-02
    0.400   1.253E-01
    0.500   1.876E-01
    0.600   2.571E-01
    0.700   3.308E-01
    0.800   4.063E-01
    0.900   4.813E-01
    1.000   5.541E-01
    1.100   6.236E-01
    1.200   6.887E-01
    1.300   7.490E-01
    1.400   8.040E-01
    1.500   8.539E-01
    1.600   8.986E-01
    1.700   9.383E-01
    1.800   9.733E-01
    1.900   1.004E+00
    2.000   1.031E+00
    2.100   1.053E+00
    2.200   1.073E+00
    2.300   1.089E+00
    2.400   1.103E+00
    2.500   1.114E+00
    2.600   1.123E+00
    2.700   1.130E+00
    2.800   1.136E+00
    2.900   1.140E+00
    3.000   1.143E+00
    3.100   1.145E+00
    3.200   1.146E+00
    3.300   1.146E+00
    3.400   1.145E+00
    3.500   1.145E+00
    3.600   1.144E+00
    3.700   1.142E+00
    3.800   1.141E+00
    3.900   1.140E+00
    4.000   1.139E+00
    4.100   1.137E+00
    4.200   1.137E+00
    4.300   1.136E+00
    4.400   1.136E+00
    4.500   1.137E+00
    4.600   1.138E+00
    4.700   1.139E+00
    4.800   1.141E+00
    4.900   1.144E+00
    5.000   1.147E+00
    5.100   1.152E+00
    5.200   1.157E+00
    5.300   1.163E+00
    5.400   1.170E+00
    5.500   1.177E+00
    5.600   1.186E+00
    5.700   1.196E+00
    5.800   1.206E+00
    5.900   1.218E+00
    6.000   1.231E+00
    6.100   1.245E+00
    6.200   1.260E+00
    6.300   1.277E+00
    6.400   1.294E+00
    6.500   1.313E+00
    6.600   1.333E+00
    6.700   1.355E+00
    6.800   1.378E+00
    6.900   1.402E+00
    7.000   1.428E+00
    7.100   1.456E+00
    7.200   1.485E+00
    7.300   1.515E+00
    7.400   1.547E+00
    7.500   1.581E+00
    7.600   1.617E+00
    7.700   1.654E+00
    7.800   1.693E+00
    7.900   1.734E+00
    8.000   1.777E+00
    8.100   1.822E+00
    8.200   1.869E+00
    8.300   1.918E+00
    8.400   1.970E+00
    8.500   2.023E+00
    8.600   2.079E+00
    8.700   2.137E+00
    8.800   2.198E+00
    8.900   2.261E+00
    9.000   2.327E+00
    9.100   2.396E+00
    9.200   2.467E+00
    9.300   2.542E+00
    9.400   2.619E+00
    9.500   2.700E+00
    9.600   2.783E+00
    9.700   2.870E+00
    9.800   2.961E+00
    9.900   3.055E+00
   10.000   3.152E+00
   10.100   3.254E+00
   10.200   3.359E+00
   10.300   3.468E+00
   10.400   3.581E+00
   10.500   3.698E+00
   10.600   3.820E+00
   10.700   3.946E+00
   10.800   4.076E+00
   10.900   4.210E+00
   11.000   4.349E+00
   11.100   4.493E+00
   11.200   4.641E+00
   11.300   4.794E+00
   11.400   4.951E+00
   11.500   5.113E+00
   11.600   5.279E+00
   11.700   5.450E+00
   11.800   5.626E+00
   11.900   5.806E+00
   12.000   5.990E+00
   12.100   6.178E+00
   12.200   6.370E+00
   12.300   6.565E+00
   12.400   6.764E+00
   12.500   6.966E+00
   12.600   7.170E+00
   12.700   7.376E+00
   12.800   7.584E+00
   12.900   7.793E+00
   13.000   8.002E+00
   13.100   8.210E+00
   13.200   8.418E+00
   13.300   8.623E+00
   13.400   8.826E+00
   13.500   9.025E+00
   13.600   9.220E+00
   13.700   9.409E+00
   13.800   9.591E+00
   13.900   9.766E+00
   14.000   9.932E+00
   14.100   1.009E+01
   14.200   1.024E+01
   14.300   1.037E+01
   14.400   1.050E+01
   14.500   1.061E+01
   14.600   1.071E+01
   14.700   1.080E+01
   14.800   1.087E+01
   14.900   1.093E+01
   15.000   1.097E+01
   15.100   1.100E+01
   15.200   1.102E+01
   15.300   1.102E+01
   15.400   1.101E+01
   15.500   1.098E+01
   15.600   1.094E+01
   15.700   1.089E+01
   15.800   1.082E+01
   15.900   1.075E+01
   16.000   1.066E+01
   16.100   1.056E+01
   16.200   1.045E+01
   16.300   1.033E+01
   16.400   1.020E+01
   16.500   1.007E+01
   16.600   9.921E+00
   16.700   9.771E+00
   16.800   9.614E+00
   16.900   9.452E+00
   17.000   9.286E+00
   17.100   9.116E+00
   17.200   8.943E+00
   17.300   8.768E+00
   17.400   8.591E+00
   17.500   8.413E+00
   17.600   8.234E+00
   17.700   8.055E+00
   17.800   7.877E+00
   17.900   7.700E+00
   18.000   7.524E+00
   18.100   7.350E+00
   18.200   7.178E+00
   18.300   7.009E+00
   18.400   6.842E+00
   18.500   6.678E+00
   18.600   6.518E+00
   18.700   6.360E+00
   18.800   6.206E+00
   18.900   6.056E+00
   19.000   5.909E+00
   19.100   5.765E+00
   19.200   5.625E+00
   19.300   5.489E+00
   19.400   5.357E+00
   19.500   5.228E+00
   19.600   5.103E+00
   19.700   4.981E+00
   19.800   4.863E+00
   19.900   4.749E+00
   20.000   4.637E+00
   20.100   4.530E+00
   20.200   4.425E+00
   20.300   4.323E+00
   20.400   4.225E+00
   20.500   4.130E+00
   20.600   4.037E+00
   20.700   3.947E+00
   20.800   3.861E+00
   20.900   3.776E+00
   21.000   3.695E+00
   21.100   3.615E+00
   21.200   3.539E+00
   21.300   3.464E+00
   21.400   3.392E+00
   21.500   3.322E+00
   21.600   3.254E+00
   21.700   3.188E+00
   21.800   3.124E+00
   21.900   3.062E+00
   22.000   3.002E+00
   22.100   2.943E+00
   22.200   2.886E+00
   22.300   2.831E+00
   22.400   2.777E+00
   22.500   2.725E+00
   22.600   2.675E+00
   22.700   2.626E+00
   22.800   2.578E+00
   22.900   2.531E+00
   23.000   2.486E+00
   23.100   2.442E+00
   23.200   2.399E+00
   23.300   2.358E+00
   23.400   2.317E+00
   23.500   2.278E+00
   23.600   2.239E+00
   23.700   2.202E+00
   23.800   2.165E+00
   23.900   2.130E+00
   24.000   2.095E+00
   24.100   2.062E+00
   24.200   2.029E+00
   24.300   1.997E+00
   24.400   1.965E+00
   24.500   1.935E+00
   24.600   1.905E+00
   24.700   1.876E+00
   24.800   1.848E+00
   24.900   1.820E+00
   25.000   1.793E+00
   25.100   1.766E+00
   25.200   1.741E+00
   25.300   1.715E+00
   25.400   1.691E+00
   25.500   1.667E+00
   25.600   1.643E+00
   25.700   1.620E+00
   25.800   1.598E+00
   25.900   1.576E+00
   26.000   1.554E+00
   26.100   1.533E+00
   26.200   1.513E+00
   26.300   1.492E+00
   26.400   1.473E+00
   26.500   1.453E+00
   26.600   1.434E+00
   26.700   1.416E+00
   26.800   1.398E+00
   26.900   1.380E+00
   27.000   1.362E+00
   27.100   1.345E+00
   27.200   1.329E+00
   27.300   1.312E+00
   27.400   1.296E+00
   27.500   1.280E+00
   27.600   1.265E+00
   27.700   1.250E+00
   27.800   1.235E+00
   27.900   1.220E+00
   28.000   1.206E+00
   28.100   1.192E+00
   28.200   1.178E+00
   28.300   1.165E+00
   28.400   1.151E+00
   28.500   1.138E+00
   28.600   1.125E+00
   28.700   1.113E+00
   28.800   1.100E+00
   28.900   1.088E+00
   29.000   1.076E+00
   29.100   1.065E+00
   29.200   1.053E+00
   29.300   1.042E+00
   29.400   1.031E+00
   29.500   1.020E+00
   29.600   1.009E+00
   29.700   9.985E-01
   29.800   9.881E-01
   29.900   9.779E-01
   30.000   9.678E-01
 
 Z=  40 A=  99  D1M-QRPA-Inter
 E[MeV]  fQRPA[mb/MeV]
    0.100   8.204E-04
    0.200   3.257E-03
    0.300   7.239E-03
    0.400   1.266E-02
    0.500   1.937E-02
    0.600   2.722E-02
    0.700   3.605E-02
    0.800   4.569E-02
    0.900   5.599E-02
    1.000   6.682E-02
    1.100   7.805E-02
    1.200   8.958E-02
    1.300   1.013E-01
    1.400   1.132E-01
    1.500   1.252E-01
    1.600   1.372E-01
    1.700   1.492E-01
    1.800   1.612E-01
    1.900   1.731E-01
    2.000   1.850E-01
    2.100   1.968E-01
    2.200   2.085E-01
    2.300   2.201E-01
    2.400   2.316E-01
    2.500   2.431E-01
    2.600   2.545E-01
    2.700   2.658E-01
    2.800   2.771E-01
    2.900   2.883E-01
    3.000   2.995E-01
    3.100   3.107E-01
    3.200   3.219E-01
    3.300   3.331E-01
    3.400   3.443E-01
    3.500   3.555E-01
    3.600   3.668E-01
    3.700   3.782E-01
    3.800   3.896E-01
    3.900   4.012E-01
    4.000   4.129E-01
    4.100   4.248E-01
    4.200   4.368E-01
    4.300   4.491E-01
    4.400   4.616E-01
    4.500   4.743E-01
    4.600   4.873E-01
    4.700   5.006E-01
    4.800   5.142E-01
    4.900   5.282E-01
    5.000   5.426E-01
    5.100   5.574E-01
    5.200   5.726E-01
    5.300   5.883E-01
    5.400   6.045E-01
    5.500   6.212E-01
    5.600   6.385E-01
    5.700   6.564E-01
    5.800   6.749E-01
    5.900   6.940E-01
    6.000   7.139E-01
    6.100   7.345E-01
    6.200   7.558E-01
    6.300   7.779E-01
    6.400   8.009E-01
    6.500   8.247E-01
    6.600   8.495E-01
    6.700   8.751E-01
    6.800   9.018E-01
    6.900   9.294E-01
    7.000   9.581E-01
    7.100   9.879E-01
    7.200   1.019E+00
    7.300   1.051E+00
    7.400   1.084E+00
    7.500   1.119E+00
    7.600   1.154E+00
    7.700   1.191E+00
    7.800   1.230E+00
    7.900   1.270E+00
    8.000   1.311E+00
    8.100   1.354E+00
    8.200   1.398E+00
    8.300   1.444E+00
    8.400   1.492E+00
    8.500   1.541E+00
    8.600   1.593E+00
    8.700   1.646E+00
    8.800   1.701E+00
    8.900   1.758E+00
    9.000   1.817E+00
    9.100   1.878E+00
    9.200   1.942E+00
    9.300   2.008E+00
    9.400   2.077E+00
    9.500   2.148E+00
    9.600   2.222E+00
    9.700   2.298E+00
    9.800   2.378E+00
    9.900   2.460E+00
   10.000   2.546E+00
   10.100   2.635E+00
   10.200   2.727E+00
   10.300   2.823E+00
   10.400   2.923E+00
   10.500   3.026E+00
   10.600   3.133E+00
   10.700   3.244E+00
   10.800   3.359E+00
   10.900   3.478E+00
   11.000   3.602E+00
   11.100   3.730E+00
   11.200   3.862E+00
   11.300   3.999E+00
   11.400   4.140E+00
   11.500   4.286E+00
   11.600   4.437E+00
   11.700   4.592E+00
   11.800   4.752E+00
   11.900   4.917E+00
   12.000   5.087E+00
   12.100   5.261E+00
   12.200   5.439E+00
   12.300   5.622E+00
   12.400   5.809E+00
   12.500   6.000E+00
   12.600   6.195E+00
   12.700   6.393E+00
   12.800   6.593E+00
   12.900   6.796E+00
   13.000   7.001E+00
   13.100   7.208E+00
   13.200   7.415E+00
   13.300   7.621E+00
   13.400   7.827E+00
   13.500   8.031E+00
   13.600   8.233E+00
   13.700   8.431E+00
   13.800   8.625E+00
   13.900   8.813E+00
   14.000   8.995E+00
   14.100   9.170E+00
   14.200   9.336E+00
   14.300   9.493E+00
   14.400   9.641E+00
   14.500   9.777E+00
   14.600   9.903E+00
   14.700   1.002E+01
   14.800   1.012E+01
   14.900   1.021E+01
   15.000   1.028E+01
   15.100   1.034E+01
   15.200   1.039E+01
   15.300   1.043E+01
   15.400   1.045E+01
   15.500   1.046E+01
   15.600   1.046E+01
   15.700   1.044E+01
   15.800   1.041E+01
   15.900   1.037E+01
   16.000   1.032E+01
   16.100   1.026E+01
   16.200   1.019E+01
   16.300   1.010E+01
   16.400   1.001E+01
   16.500   9.911E+00
   16.600   9.801E+00
   16.700   9.683E+00
   16.800   9.557E+00
   16.900   9.425E+00
   17.000   9.286E+00
   17.100   9.141E+00
   17.200   8.991E+00
   17.300   8.837E+00
   17.400   8.679E+00
   17.500   8.517E+00
   17.600   8.352E+00
   17.700   8.185E+00
   17.800   8.017E+00
   17.900   7.847E+00
   18.000   7.676E+00
   18.100   7.506E+00
   18.200   7.335E+00
   18.300   7.166E+00
   18.400   6.997E+00
   18.500   6.830E+00
   18.600   6.665E+00
   18.700   6.502E+00
   18.800   6.342E+00
   18.900   6.184E+00
   19.000   6.029E+00
   19.100   5.877E+00
   19.200   5.728E+00
   19.300   5.583E+00
   19.400   5.441E+00
   19.500   5.303E+00
   19.600   5.168E+00
   19.700   5.037E+00
   19.800   4.910E+00
   19.900   4.786E+00
   20.000   4.666E+00
   20.100   4.549E+00
   20.200   4.436E+00
   20.300   4.326E+00
   20.400   4.219E+00
   20.500   4.116E+00
   20.600   4.017E+00
   20.700   3.920E+00
   20.800   3.826E+00
   20.900   3.736E+00
   21.000   3.648E+00
   21.100   3.563E+00
   21.200   3.481E+00
   21.300   3.401E+00
   21.400   3.325E+00
   21.500   3.250E+00
   21.600   3.178E+00
   21.700   3.108E+00
   21.800   3.040E+00
   21.900   2.975E+00
   22.000   2.912E+00
   22.100   2.850E+00
   22.200   2.791E+00
   22.300   2.733E+00
   22.400   2.677E+00
   22.500   2.623E+00
   22.600   2.570E+00
   22.700   2.519E+00
   22.800   2.470E+00
   22.900   2.422E+00
   23.000   2.375E+00
   23.100   2.330E+00
   23.200   2.286E+00
   23.300   2.243E+00
   23.400   2.202E+00
   23.500   2.162E+00
   23.600   2.123E+00
   23.700   2.085E+00
   23.800   2.048E+00
   23.900   2.012E+00
   24.000   1.977E+00
   24.100   1.943E+00
   24.200   1.910E+00
   24.300   1.877E+00
   24.400   1.846E+00
   24.500   1.815E+00
   24.600   1.786E+00
   24.700   1.757E+00
   24.800   1.728E+00
   24.900   1.701E+00
   25.000   1.674E+00
   25.100   1.648E+00
   25.200   1.622E+00
   25.300   1.597E+00
   25.400   1.573E+00
   25.500   1.549E+00
   25.600   1.526E+00
   25.700   1.503E+00
   25.800   1.481E+00
   25.900   1.460E+00
   26.000   1.438E+00
   26.100   1.418E+00
   26.200   1.398E+00
   26.300   1.378E+00
   26.400   1.359E+00
   26.500   1.340E+00
   26.600   1.321E+00
   26.700   1.303E+00
   26.800   1.286E+00
   26.900   1.269E+00
   27.000   1.252E+00
   27.100   1.235E+00
   27.200   1.219E+00
   27.300   1.203E+00
   27.400   1.188E+00
   27.500   1.173E+00
   27.600   1.158E+00
   27.700   1.143E+00
   27.800   1.129E+00
   27.900   1.115E+00
   28.000   1.101E+00
   28.100   1.088E+00
   28.200   1.074E+00
   28.300   1.062E+00
   28.400   1.049E+00
   28.500   1.036E+00
   28.600   1.024E+00
   28.700   1.012E+00
   28.800   1.000E+00
   28.900   9.889E-01
   29.000   9.776E-01
   29.100   9.665E-01
   29.200   9.556E-01
   29.300   9.449E-01
   29.400   9.343E-01
   29.500   9.240E-01
   29.600   9.138E-01
   29.700   9.039E-01
   29.800   8.941E-01
   29.900   8.844E-01
   30.000   8.750E-01
 
 Z=  40 A= 100  D1M-QRPA
   E[MeV]   fQRPA[mb/MeV]
    0.100   7.849E-05
    0.200   3.140E-04
    0.300   7.069E-04
    0.400   1.258E-03
    0.500   1.967E-03
    0.600   2.835E-03
    0.700   3.864E-03
    0.800   5.054E-03
    0.900   6.408E-03
    1.000   7.925E-03
    1.100   9.609E-03
    1.200   1.146E-02
    1.300   1.349E-02
    1.400   1.568E-02
    1.500   1.805E-02
    1.600   2.060E-02
    1.700   2.334E-02
    1.800   2.625E-02
    1.900   2.936E-02
    2.000   3.266E-02
    2.100   3.615E-02
    2.200   3.984E-02
    2.300   4.374E-02
    2.400   4.785E-02
    2.500   5.218E-02
    2.600   5.672E-02
    2.700   6.149E-02
    2.800   6.650E-02
    2.900   7.174E-02
    3.000   7.723E-02
    3.100   8.297E-02
    3.200   8.897E-02
    3.300   9.523E-02
    3.400   1.018E-01
    3.500   1.086E-01
    3.600   1.157E-01
    3.700   1.231E-01
    3.800   1.309E-01
    3.900   1.389E-01
    4.000   1.473E-01
    4.100   1.561E-01
    4.200   1.651E-01
    4.300   1.746E-01
    4.400   1.845E-01
    4.500   1.947E-01
    4.600   2.054E-01
    4.700   2.164E-01
    4.800   2.280E-01
    4.900   2.399E-01
    5.000   2.524E-01
    5.100   2.653E-01
    5.200   2.788E-01
    5.300   2.928E-01
    5.400   3.073E-01
    5.500   3.224E-01
    5.600   3.381E-01
    5.700   3.544E-01
    5.800   3.714E-01
    5.900   3.890E-01
    6.000   4.072E-01
    6.100   4.262E-01
    6.200   4.459E-01
    6.300   4.663E-01
    6.400   4.875E-01
    6.500   5.095E-01
    6.600   5.323E-01
    6.700   5.560E-01
    6.800   5.805E-01
    6.900   6.059E-01
    7.000   6.322E-01
    7.100   6.595E-01
    7.200   6.877E-01
    7.300   7.169E-01
    7.400   7.472E-01
    7.500   7.784E-01
    7.600   8.108E-01
    7.700   8.442E-01
    7.800   8.788E-01
    7.900   9.145E-01
    8.000   9.514E-01
    8.100   9.895E-01
    8.200   1.029E+00
    8.300   1.070E+00
    8.400   1.112E+00
    8.500   1.155E+00
    8.600   1.200E+00
    8.700   1.246E+00
    8.800   1.294E+00
    8.900   1.344E+00
    9.000   1.395E+00
    9.100   1.449E+00
    9.200   1.504E+00
    9.300   1.561E+00
    9.400   1.620E+00
    9.500   1.681E+00
    9.600   1.744E+00
    9.700   1.810E+00
    9.800   1.878E+00
    9.900   1.949E+00
   10.000   2.023E+00
   10.100   2.099E+00
   10.200   2.179E+00
   10.300   2.261E+00
   10.400   2.347E+00
   10.500   2.435E+00
   10.600   2.528E+00
   10.700   2.624E+00
   10.800   2.723E+00
   10.900   2.827E+00
   11.000   2.934E+00
   11.100   3.045E+00
   11.200   3.161E+00
   11.300   3.281E+00
   11.400   3.405E+00
   11.500   3.534E+00
   11.600   3.668E+00
   11.700   3.806E+00
   11.800   3.949E+00
   11.900   4.097E+00
   12.000   4.249E+00
   12.100   4.407E+00
   12.200   4.569E+00
   12.300   4.736E+00
   12.400   4.908E+00
   12.500   5.084E+00
   12.600   5.265E+00
   12.700   5.450E+00
   12.800   5.639E+00
   12.900   5.831E+00
   13.000   6.026E+00
   13.100   6.224E+00
   13.200   6.424E+00
   13.300   6.626E+00
   13.400   6.828E+00
   13.500   7.030E+00
   13.600   7.232E+00
   13.700   7.432E+00
   13.800   7.629E+00
   13.900   7.823E+00
   14.000   8.013E+00
   14.100   8.197E+00
   14.200   8.375E+00
   14.300   8.546E+00
   14.400   8.709E+00
   14.500   8.863E+00
   14.600   9.007E+00
   14.700   9.141E+00
   14.800   9.265E+00
   14.900   9.377E+00
   15.000   9.477E+00
   15.100   9.566E+00
   15.200   9.643E+00
   15.300   9.707E+00
   15.400   9.760E+00
   15.500   9.801E+00
   15.600   9.830E+00
   15.700   9.848E+00
   15.800   9.854E+00
   15.900   9.849E+00
   16.000   9.833E+00
   16.100   9.806E+00
   16.200   9.769E+00
   16.300   9.722E+00
   16.400   9.665E+00
   16.500   9.599E+00
   16.600   9.523E+00
   16.700   9.439E+00
   16.800   9.345E+00
   16.900   9.243E+00
   17.000   9.134E+00
   17.100   9.017E+00
   17.200   8.892E+00
   17.300   8.761E+00
   17.400   8.624E+00
   17.500   8.482E+00
   17.600   8.334E+00
   17.700   8.182E+00
   17.800   8.025E+00
   17.900   7.866E+00
   18.000   7.704E+00
   18.100   7.539E+00
   18.200   7.373E+00
   18.300   7.206E+00
   18.400   7.039E+00
   18.500   6.872E+00
   18.600   6.705E+00
   18.700   6.539E+00
   18.800   6.374E+00
   18.900   6.212E+00
   19.000   6.051E+00
   19.100   5.893E+00
   19.200   5.738E+00
   19.300   5.586E+00
   19.400   5.437E+00
   19.500   5.291E+00
   19.600   5.149E+00
   19.700   5.011E+00
   19.800   4.876E+00
   19.900   4.745E+00
   20.000   4.617E+00
   20.100   4.494E+00
   20.200   4.374E+00
   20.300   4.258E+00
   20.400   4.145E+00
   20.500   4.036E+00
   20.600   3.931E+00
   20.700   3.829E+00
   20.800   3.730E+00
   20.900   3.635E+00
   21.000   3.543E+00
   21.100   3.454E+00
   21.200   3.368E+00
   21.300   3.285E+00
   21.400   3.205E+00
   21.500   3.128E+00
   21.600   3.053E+00
   21.700   2.981E+00
   21.800   2.911E+00
   21.900   2.843E+00
   22.000   2.778E+00
   22.100   2.715E+00
   22.200   2.654E+00
   22.300   2.595E+00
   22.400   2.538E+00
   22.500   2.483E+00
   22.600   2.429E+00
   22.700   2.378E+00
   22.800   2.328E+00
   22.900   2.279E+00
   23.000   2.232E+00
   23.100   2.187E+00
   23.200   2.143E+00
   23.300   2.100E+00
   23.400   2.058E+00
   23.500   2.018E+00
   23.600   1.979E+00
   23.700   1.941E+00
   23.800   1.905E+00
   23.900   1.869E+00
   24.000   1.834E+00
   24.100   1.801E+00
   24.200   1.768E+00
   24.300   1.736E+00
   24.400   1.705E+00
   24.500   1.675E+00
   24.600   1.646E+00
   24.700   1.618E+00
   24.800   1.590E+00
   24.900   1.563E+00
   25.000   1.537E+00
   25.100   1.512E+00
   25.200   1.487E+00
   25.300   1.463E+00
   25.400   1.439E+00
   25.500   1.416E+00
   25.600   1.394E+00
   25.700   1.372E+00
   25.800   1.351E+00
   25.900   1.330E+00
   26.000   1.310E+00
   26.100   1.290E+00
   26.200   1.270E+00
   26.300   1.252E+00
   26.400   1.233E+00
   26.500   1.215E+00
   26.600   1.198E+00
   26.700   1.180E+00
   26.800   1.164E+00
   26.900   1.147E+00
   27.000   1.131E+00
   27.100   1.116E+00
   27.200   1.100E+00
   27.300   1.085E+00
   27.400   1.071E+00
   27.500   1.056E+00
   27.600   1.042E+00
   27.700   1.029E+00
   27.800   1.015E+00
   27.900   1.002E+00
   28.000   9.890E-01
   28.100   9.763E-01
   28.200   9.640E-01
   28.300   9.518E-01
   28.400   9.399E-01
   28.500   9.283E-01
   28.600   9.169E-01
   28.700   9.057E-01
   28.800   8.947E-01
   28.900   8.839E-01
   29.000   8.734E-01
   29.100   8.630E-01
   29.200   8.529E-01
   29.300   8.429E-01
   29.400   8.331E-01
   29.500   8.235E-01
   29.600   8.141E-01
   29.700   8.048E-01
   29.800   7.958E-01
   29.900   7.868E-01
   30.000   7.781E-01
 
 Z=  40 A= 101  D1M-QRPA-Inter
 E[MeV]  fQRPA[mb/MeV]
    0.100   7.543E-05
    0.200   3.018E-04
    0.300   6.794E-04
    0.400   1.209E-03
    0.500   1.890E-03
    0.600   2.725E-03
    0.700   3.714E-03
    0.800   4.858E-03
    0.900   6.159E-03
    1.000   7.618E-03
    1.100   9.237E-03
    1.200   1.102E-02
    1.300   1.296E-02
    1.400   1.508E-02
    1.500   1.736E-02
    1.600   1.981E-02
    1.700   2.244E-02
    1.800   2.524E-02
    1.900   2.823E-02
    2.000   3.141E-02
    2.100   3.477E-02
    2.200   3.833E-02
    2.300   4.208E-02
    2.400   4.604E-02
    2.500   5.020E-02
    2.600   5.458E-02
    2.700   5.918E-02
    2.800   6.400E-02
    2.900   6.905E-02
    3.000   7.434E-02
    3.100   7.987E-02
    3.200   8.566E-02
    3.300   9.170E-02
    3.400   9.801E-02
    3.500   1.046E-01
    3.600   1.115E-01
    3.700   1.186E-01
    3.800   1.261E-01
    3.900   1.339E-01
    4.000   1.420E-01
    4.100   1.504E-01
    4.200   1.592E-01
    4.300   1.683E-01
    4.400   1.778E-01
    4.500   1.877E-01
    4.600   1.980E-01
    4.700   2.088E-01
    4.800   2.199E-01
    4.900   2.315E-01
    5.000   2.436E-01
    5.100   2.561E-01
    5.200   2.692E-01
    5.300   2.828E-01
    5.400   2.969E-01
    5.500   3.116E-01
    5.600   3.269E-01
    5.700   3.427E-01
    5.800   3.593E-01
    5.900   3.764E-01
    6.000   3.943E-01
    6.100   4.128E-01
    6.200   4.321E-01
    6.300   4.521E-01
    6.400   4.729E-01
    6.500   4.945E-01
    6.600   5.170E-01
    6.700   5.402E-01
    6.800   5.644E-01
    6.900   5.895E-01
    7.000   6.154E-01
    7.100   6.424E-01
    7.200   6.703E-01
    7.300   6.992E-01
    7.400   7.291E-01
    7.500   7.601E-01
    7.600   7.922E-01
    7.700   8.253E-01
    7.800   8.596E-01
    7.900   8.950E-01
    8.000   9.316E-01
    8.100   9.694E-01
    8.200   1.008E+00
    8.300   1.049E+00
    8.400   1.090E+00
    8.500   1.133E+00
    8.600   1.177E+00
    8.700   1.223E+00
    8.800   1.270E+00
    8.900   1.319E+00
    9.000   1.370E+00
    9.100   1.422E+00
    9.200   1.476E+00
    9.300   1.531E+00
    9.400   1.589E+00
    9.500   1.649E+00
    9.600   1.711E+00
    9.700   1.775E+00
    9.800   1.841E+00
    9.900   1.911E+00
   10.000   1.982E+00
   10.100   2.057E+00
   10.200   2.134E+00
   10.300   2.215E+00
   10.400   2.298E+00
   10.500   2.385E+00
   10.600   2.476E+00
   10.700   2.570E+00
   10.800   2.667E+00
   10.900   2.769E+00
   11.000   2.875E+00
   11.100   2.985E+00
   11.200   3.100E+00
   11.300   3.219E+00
   11.400   3.343E+00
   11.500   3.472E+00
   11.600   3.606E+00
   11.700   3.746E+00
   11.800   3.890E+00
   11.900   4.041E+00
   12.000   4.197E+00
   12.100   4.358E+00
   12.200   4.526E+00
   12.300   4.699E+00
   12.400   4.879E+00
   12.500   5.064E+00
   12.600   5.255E+00
   12.700   5.453E+00
   12.800   5.655E+00
   12.900   5.863E+00
   13.000   6.076E+00
   13.100   6.294E+00
   13.200   6.516E+00
   13.300   6.742E+00
   13.400   6.971E+00
   13.500   7.203E+00
   13.600   7.436E+00
   13.700   7.670E+00
   13.800   7.904E+00
   13.900   8.136E+00
   14.000   8.366E+00
   14.100   8.592E+00
   14.200   8.814E+00
   14.300   9.029E+00
   14.400   9.237E+00
   14.500   9.437E+00
   14.600   9.627E+00
   14.700   9.806E+00
   14.800   9.974E+00
   14.900   1.013E+01
   15.000   1.027E+01
   15.100   1.040E+01
   15.200   1.051E+01
   15.300   1.061E+01
   15.400   1.069E+01
   15.500   1.075E+01
   15.600   1.081E+01
   15.700   1.084E+01
   15.800   1.086E+01
   15.900   1.087E+01
   16.000   1.086E+01
   16.100   1.084E+01
   16.200   1.080E+01
   16.300   1.075E+01
   16.400   1.069E+01
   16.500   1.061E+01
   16.600   1.053E+01
   16.700   1.043E+01
   16.800   1.032E+01
   16.900   1.020E+01
   17.000   1.007E+01
   17.100   9.935E+00
   17.200   9.789E+00
   17.300   9.635E+00
   17.400   9.475E+00
   17.500   9.308E+00
   17.600   9.135E+00
   17.700   8.956E+00
   17.800   8.774E+00
   17.900   8.587E+00
   18.000   8.397E+00
   18.100   8.205E+00
   18.200   8.011E+00
   18.300   7.817E+00
   18.400   7.621E+00
   18.500   7.426E+00
   18.600   7.232E+00
   18.700   7.040E+00
   18.800   6.849E+00
   18.900   6.661E+00
   19.000   6.476E+00
   19.100   6.294E+00
   19.200   6.116E+00
   19.300   5.942E+00
   19.400   5.772E+00
   19.500   5.606E+00
   19.600   5.445E+00
   19.700   5.288E+00
   19.800   5.136E+00
   19.900   4.989E+00
   20.000   4.847E+00
   20.100   4.709E+00
   20.200   4.575E+00
   20.300   4.447E+00
   20.400   4.322E+00
   20.500   4.202E+00
   20.600   4.087E+00
   20.700   3.975E+00
   20.800   3.867E+00
   20.900   3.764E+00
   21.000   3.664E+00
   21.100   3.567E+00
   21.200   3.474E+00
   21.300   3.385E+00
   21.400   3.298E+00
   21.500   3.215E+00
   21.600   3.135E+00
   21.700   3.058E+00
   21.800   2.983E+00
   21.900   2.911E+00
   22.000   2.842E+00
   22.100   2.775E+00
   22.200   2.710E+00
   22.300   2.648E+00
   22.400   2.588E+00
   22.500   2.529E+00
   22.600   2.473E+00
   22.700   2.419E+00
   22.800   2.366E+00
   22.900   2.315E+00
   23.000   2.266E+00
   23.100   2.218E+00
   23.200   2.172E+00
   23.300   2.128E+00
   23.400   2.085E+00
   23.500   2.043E+00
   23.600   2.002E+00
   23.700   1.963E+00
   23.800   1.925E+00
   23.900   1.888E+00
   24.000   1.852E+00
   24.100   1.817E+00
   24.200   1.783E+00
   24.300   1.751E+00
   24.400   1.719E+00
   24.500   1.688E+00
   24.600   1.658E+00
   24.700   1.628E+00
   24.800   1.600E+00
   24.900   1.572E+00
   25.000   1.545E+00
   25.100   1.519E+00
   25.200   1.494E+00
   25.300   1.469E+00
   25.400   1.445E+00
   25.500   1.421E+00
   25.600   1.398E+00
   25.700   1.376E+00
   25.800   1.354E+00
   25.900   1.333E+00
   26.000   1.312E+00
   26.100   1.292E+00
   26.200   1.272E+00
   26.300   1.253E+00
   26.400   1.234E+00
   26.500   1.216E+00
   26.600   1.198E+00
   26.700   1.181E+00
   26.800   1.164E+00
   26.900   1.147E+00
   27.000   1.131E+00
   27.100   1.115E+00
   27.200   1.099E+00
   27.300   1.084E+00
   27.400   1.069E+00
   27.500   1.055E+00
   27.600   1.040E+00
   27.700   1.026E+00
   27.800   1.013E+00
   27.900   9.994E-01
   28.000   9.864E-01
   28.100   9.736E-01
   28.200   9.611E-01
   28.300   9.488E-01
   28.400   9.368E-01
   28.500   9.250E-01
   28.600   9.135E-01
   28.700   9.022E-01
   28.800   8.911E-01
   28.900   8.802E-01
   29.000   8.696E-01
   29.100   8.591E-01
   29.200   8.489E-01
   29.300   8.388E-01
   29.400   8.290E-01
   29.500   8.193E-01
   29.600   8.098E-01
   29.700   8.005E-01
   29.800   7.913E-01
   29.900   7.823E-01
   30.000   7.735E-01
 
 Z=  40 A= 102  D1M-QRPA
   E[MeV]   fQRPA[mb/MeV]
    0.100   7.227E-05
    0.200   2.892E-04
    0.300   6.510E-04
    0.400   1.158E-03
    0.500   1.811E-03
    0.600   2.611E-03
    0.700   3.559E-03
    0.800   4.655E-03
    0.900   5.902E-03
    1.000   7.301E-03
    1.100   8.853E-03
    1.200   1.056E-02
    1.300   1.243E-02
    1.400   1.445E-02
    1.500   1.664E-02
    1.600   1.899E-02
    1.700   2.151E-02
    1.800   2.420E-02
    1.900   2.707E-02
    2.000   3.012E-02
    2.100   3.334E-02
    2.200   3.676E-02
    2.300   4.036E-02
    2.400   4.416E-02
    2.500   4.816E-02
    2.600   5.237E-02
    2.700   5.678E-02
    2.800   6.141E-02
    2.900   6.627E-02
    3.000   7.135E-02
    3.100   7.667E-02
    3.200   8.223E-02
    3.300   8.804E-02
    3.400   9.411E-02
    3.500   1.004E-01
    3.600   1.070E-01
    3.700   1.139E-01
    3.800   1.211E-01
    3.900   1.286E-01
    4.000   1.364E-01
    4.100   1.445E-01
    4.200   1.530E-01
    4.300   1.618E-01
    4.400   1.709E-01
    4.500   1.805E-01
    4.600   1.904E-01
    4.700   2.008E-01
    4.800   2.115E-01
    4.900   2.227E-01
    5.000   2.344E-01
    5.100   2.465E-01
    5.200   2.591E-01
    5.300   2.723E-01
    5.400   2.860E-01
    5.500   3.002E-01
    5.600   3.150E-01
    5.700   3.304E-01
    5.800   3.465E-01
    5.900   3.632E-01
    6.000   3.806E-01
    6.100   3.987E-01
    6.200   4.175E-01
    6.300   4.370E-01
    6.400   4.574E-01
    6.500   4.785E-01
    6.600   5.005E-01
    6.700   5.234E-01
    6.800   5.471E-01
    6.900   5.717E-01
    7.000   5.973E-01
    7.100   6.238E-01
    7.200   6.513E-01
    7.300   6.799E-01
    7.400   7.094E-01
    7.500   7.400E-01
    7.600   7.717E-01
    7.700   8.045E-01
    7.800   8.383E-01
    7.900   8.733E-01
    8.000   9.095E-01
    8.100   9.468E-01
    8.200   9.854E-01
    8.300   1.025E+00
    8.400   1.066E+00
    8.500   1.108E+00
    8.600   1.152E+00
    8.700   1.197E+00
    8.800   1.243E+00
    8.900   1.291E+00
    9.000   1.340E+00
    9.100   1.391E+00
    9.200   1.444E+00
    9.300   1.498E+00
    9.400   1.554E+00
    9.500   1.613E+00
    9.600   1.673E+00
    9.700   1.735E+00
    9.800   1.800E+00
    9.900   1.867E+00
   10.000   1.937E+00
   10.100   2.009E+00
   10.200   2.085E+00
   10.300   2.163E+00
   10.400   2.244E+00
   10.500   2.329E+00
   10.600   2.417E+00
   10.700   2.509E+00
   10.800   2.605E+00
   10.900   2.705E+00
   11.000   2.809E+00
   11.100   2.918E+00
   11.200   3.031E+00
   11.300   3.149E+00
   11.400   3.272E+00
   11.500   3.401E+00
   11.600   3.535E+00
   11.700   3.675E+00
   11.800   3.821E+00
   11.900   3.973E+00
   12.000   4.132E+00
   12.100   4.297E+00
   12.200   4.470E+00
   12.300   4.649E+00
   12.400   4.835E+00
   12.500   5.029E+00
   12.600   5.230E+00
   12.700   5.439E+00
   12.800   5.655E+00
   12.900   5.878E+00
   13.000   6.109E+00
   13.100   6.346E+00
   13.200   6.590E+00
   13.300   6.841E+00
   13.400   7.097E+00
   13.500   7.358E+00
   13.600   7.623E+00
   13.700   7.892E+00
   13.800   8.164E+00
   13.900   8.436E+00
   14.000   8.708E+00
   14.100   8.979E+00
   14.200   9.248E+00
   14.300   9.511E+00
   14.400   9.769E+00
   14.500   1.002E+01
   14.600   1.026E+01
   14.700   1.049E+01
   14.800   1.071E+01
   14.900   1.091E+01
   15.000   1.110E+01
   15.100   1.127E+01
   15.200   1.142E+01
   15.300   1.155E+01
   15.400   1.167E+01
   15.500   1.177E+01
   15.600   1.184E+01
   15.700   1.190E+01
   15.800   1.194E+01
   15.900   1.196E+01
   16.000   1.196E+01
   16.100   1.194E+01
   16.200   1.190E+01
   16.300   1.185E+01
   16.400   1.178E+01
   16.500   1.170E+01
   16.600   1.160E+01
   16.700   1.149E+01
   16.800   1.136E+01
   16.900   1.122E+01
   17.000   1.107E+01
   17.100   1.091E+01
   17.200   1.074E+01
   17.300   1.057E+01
   17.400   1.038E+01
   17.500   1.018E+01
   17.600   9.983E+00
   17.700   9.775E+00
   17.800   9.563E+00
   17.900   9.346E+00
   18.000   9.126E+00
   18.100   8.903E+00
   18.200   8.679E+00
   18.300   8.453E+00
   18.400   8.227E+00
   18.500   8.002E+00
   18.600   7.779E+00
   18.700   7.557E+00
   18.800   7.338E+00
   18.900   7.122E+00
   19.000   6.910E+00
   19.100   6.703E+00
   19.200   6.500E+00
   19.300   6.302E+00
   19.400   6.109E+00
   19.500   5.922E+00
   19.600   5.741E+00
   19.700   5.565E+00
   19.800   5.395E+00
   19.900   5.231E+00
   20.000   5.072E+00
   20.100   4.920E+00
   20.200   4.772E+00
   20.300   4.630E+00
   20.400   4.494E+00
   20.500   4.362E+00
   20.600   4.236E+00
   20.700   4.114E+00
   20.800   3.997E+00
   20.900   3.885E+00
   21.000   3.777E+00
   21.100   3.673E+00
   21.200   3.573E+00
   21.300   3.477E+00
   21.400   3.384E+00
   21.500   3.295E+00
   21.600   3.210E+00
   21.700   3.127E+00
   21.800   3.048E+00
   21.900   2.972E+00
   22.000   2.898E+00
   22.100   2.828E+00
   22.200   2.759E+00
   22.300   2.694E+00
   22.400   2.630E+00
   22.500   2.569E+00
   22.600   2.510E+00
   22.700   2.453E+00
   22.800   2.398E+00
   22.900   2.345E+00
   23.000   2.294E+00
   23.100   2.244E+00
   23.200   2.196E+00
   23.300   2.150E+00
   23.400   2.105E+00
   23.500   2.061E+00
   23.600   2.019E+00
   23.700   1.979E+00
   23.800   1.939E+00
   23.900   1.901E+00
   24.000   1.864E+00
   24.100   1.828E+00
   24.200   1.793E+00
   24.300   1.760E+00
   24.400   1.727E+00
   24.500   1.695E+00
   24.600   1.664E+00
   24.700   1.634E+00
   24.800   1.605E+00
   24.900   1.577E+00
   25.000   1.549E+00
   25.100   1.522E+00
   25.200   1.496E+00
   25.300   1.471E+00
   25.400   1.446E+00
   25.500   1.422E+00
   25.600   1.399E+00
   25.700   1.376E+00
   25.800   1.354E+00
   25.900   1.332E+00
   26.000   1.311E+00
   26.100   1.291E+00
   26.200   1.270E+00
   26.300   1.251E+00
   26.400   1.232E+00
   26.500   1.213E+00
   26.600   1.195E+00
   26.700   1.177E+00
   26.800   1.160E+00
   26.900   1.143E+00
   27.000   1.127E+00
   27.100   1.111E+00
   27.200   1.095E+00
   27.300   1.079E+00
   27.400   1.064E+00
   27.500   1.050E+00
   27.600   1.035E+00
   27.700   1.021E+00
   27.800   1.007E+00
   27.900   9.940E-01
   28.000   9.808E-01
   28.100   9.679E-01
   28.200   9.553E-01
   28.300   9.429E-01
   28.400   9.308E-01
   28.500   9.190E-01
   28.600   9.074E-01
   28.700   8.960E-01
   28.800   8.848E-01
   28.900   8.739E-01
   29.000   8.632E-01
   29.100   8.527E-01
   29.200   8.424E-01
   29.300   8.323E-01
   29.400   8.224E-01
   29.500   8.126E-01
   29.600   8.031E-01
   29.700   7.938E-01
   29.800   7.846E-01
   29.900   7.756E-01
   30.000   7.667E-01
 
 Z=  40 A= 103  D1M-QRPA-Inter
 E[MeV]  fQRPA[mb/MeV]
    0.100   6.719E-05
    0.200   2.688E-04
    0.300   6.052E-04
    0.400   1.077E-03
    0.500   1.684E-03
    0.600   2.428E-03
    0.700   3.309E-03
    0.800   4.329E-03
    0.900   5.489E-03
    1.000   6.790E-03
    1.100   8.235E-03
    1.200   9.824E-03
    1.300   1.156E-02
    1.400   1.345E-02
    1.500   1.549E-02
    1.600   1.768E-02
    1.700   2.003E-02
    1.800   2.254E-02
    1.900   2.521E-02
    2.000   2.806E-02
    2.100   3.107E-02
    2.200   3.426E-02
    2.300   3.763E-02
    2.400   4.118E-02
    2.500   4.492E-02
    2.600   4.885E-02
    2.700   5.299E-02
    2.800   5.732E-02
    2.900   6.187E-02
    3.000   6.664E-02
    3.100   7.162E-02
    3.200   7.684E-02
    3.300   8.229E-02
    3.400   8.798E-02
    3.500   9.393E-02
    3.600   1.001E-01
    3.700   1.066E-01
    3.800   1.133E-01
    3.900   1.204E-01
    4.000   1.277E-01
    4.100   1.353E-01
    4.200   1.433E-01
    4.300   1.516E-01
    4.400   1.602E-01
    4.500   1.692E-01
    4.600   1.785E-01
    4.700   1.883E-01
    4.800   1.984E-01
    4.900   2.090E-01
    5.000   2.200E-01
    5.100   2.314E-01
    5.200   2.434E-01
    5.300   2.558E-01
    5.400   2.687E-01
    5.500   2.822E-01
    5.600   2.963E-01
    5.700   3.110E-01
    5.800   3.263E-01
    5.900   3.422E-01
    6.000   3.588E-01
    6.100   3.761E-01
    6.200   3.941E-01
    6.300   4.129E-01
    6.400   4.324E-01
    6.500   4.528E-01
    6.600   4.740E-01
    6.700   4.960E-01
    6.800   5.189E-01
    6.900   5.428E-01
    7.000   5.676E-01
    7.100   5.933E-01
    7.200   6.200E-01
    7.300   6.477E-01
    7.400   6.764E-01
    7.500   7.062E-01
    7.600   7.371E-01
    7.700   7.690E-01
    7.800   8.020E-01
    7.900   8.360E-01
    8.000   8.712E-01
    8.100   9.076E-01
    8.200   9.450E-01
    8.300   9.837E-01
    8.400   1.023E+00
    8.500   1.064E+00
    8.600   1.107E+00
    8.700   1.150E+00
    8.800   1.195E+00
    8.900   1.241E+00
    9.000   1.289E+00
    9.100   1.338E+00
    9.200   1.388E+00
    9.300   1.440E+00
    9.400   1.495E+00
    9.500   1.550E+00
    9.600   1.608E+00
    9.700   1.668E+00
    9.800   1.731E+00
    9.900   1.795E+00
   10.000   1.862E+00
   10.100   1.932E+00
   10.200   2.005E+00
   10.300   2.080E+00
   10.400   2.159E+00
   10.500   2.241E+00
   10.600   2.327E+00
   10.700   2.416E+00
   10.800   2.509E+00
   10.900   2.607E+00
   11.000   2.708E+00
   11.100   2.814E+00
   11.200   2.925E+00
   11.300   3.041E+00
   11.400   3.162E+00
   11.500   3.289E+00
   11.600   3.421E+00
   11.700   3.560E+00
   11.800   3.705E+00
   11.900   3.856E+00
   12.000   4.014E+00
   12.100   4.180E+00
   12.200   4.352E+00
   12.300   4.533E+00
   12.400   4.721E+00
   12.500   4.917E+00
   12.600   5.121E+00
   12.700   5.334E+00
   12.800   5.555E+00
   12.900   5.785E+00
   13.000   6.022E+00
   13.100   6.268E+00
   13.200   6.522E+00
   13.300   6.783E+00
   13.400   7.051E+00
   13.500   7.325E+00
   13.600   7.605E+00
   13.700   7.889E+00
   13.800   8.176E+00
   13.900   8.466E+00
   14.000   8.756E+00
   14.100   9.045E+00
   14.200   9.332E+00
   14.300   9.613E+00
   14.400   9.888E+00
   14.500   1.015E+01
   14.600   1.041E+01
   14.700   1.065E+01
   14.800   1.088E+01
   14.900   1.110E+01
   15.000   1.129E+01
   15.100   1.147E+01
   15.200   1.163E+01
   15.300   1.176E+01
   15.400   1.188E+01
   15.500   1.197E+01
   15.600   1.205E+01
   15.700   1.210E+01
   15.800   1.213E+01
   15.900   1.214E+01
   16.000   1.214E+01
   16.100   1.211E+01
   16.200   1.207E+01
   16.300   1.201E+01
   16.400   1.193E+01
   16.500   1.184E+01
   16.600   1.174E+01
   16.700   1.162E+01
   16.800   1.149E+01
   16.900   1.135E+01
   17.000   1.120E+01
   17.100   1.104E+01
   17.200   1.087E+01
   17.300   1.069E+01
   17.400   1.050E+01
   17.500   1.031E+01
   17.600   1.011E+01
   17.700   9.905E+00
   17.800   9.694E+00
   17.900   9.479E+00
   18.000   9.259E+00
   18.100   9.037E+00
   18.200   8.812E+00
   18.300   8.584E+00
   18.400   8.355E+00
   18.500   8.126E+00
   18.600   7.897E+00
   18.700   7.669E+00
   18.800   7.442E+00
   18.900   7.217E+00
   19.000   6.996E+00
   19.100   6.778E+00
   19.200   6.565E+00
   19.300   6.356E+00
   19.400   6.152E+00
   19.500   5.954E+00
   19.600   5.762E+00
   19.700   5.575E+00
   19.800   5.395E+00
   19.900   5.221E+00
   20.000   5.053E+00
   20.100   4.891E+00
   20.200   4.736E+00
   20.300   4.586E+00
   20.400   4.442E+00
   20.500   4.304E+00
   20.600   4.172E+00
   20.700   4.045E+00
   20.800   3.923E+00
   20.900   3.806E+00
   21.000   3.694E+00
   21.100   3.586E+00
   21.200   3.483E+00
   21.300   3.384E+00
   21.400   3.289E+00
   21.500   3.198E+00
   21.600   3.111E+00
   21.700   3.027E+00
   21.800   2.946E+00
   21.900   2.869E+00
   22.000   2.795E+00
   22.100   2.723E+00
   22.200   2.655E+00
   22.300   2.588E+00
   22.400   2.525E+00
   22.500   2.464E+00
   22.600   2.405E+00
   22.700   2.348E+00
   22.800   2.293E+00
   22.900   2.240E+00
   23.000   2.189E+00
   23.100   2.140E+00
   23.200   2.093E+00
   23.300   2.047E+00
   23.400   2.003E+00
   23.500   1.960E+00
   23.600   1.919E+00
   23.700   1.879E+00
   23.800   1.840E+00
   23.900   1.803E+00
   24.000   1.767E+00
   24.100   1.732E+00
   24.200   1.698E+00
   24.300   1.665E+00
   24.400   1.633E+00
   24.500   1.602E+00
   24.600   1.572E+00
   24.700   1.543E+00
   24.800   1.514E+00
   24.900   1.487E+00
   25.000   1.460E+00
   25.100   1.434E+00
   25.200   1.409E+00
   25.300   1.385E+00
   25.400   1.361E+00
   25.500   1.338E+00
   25.600   1.315E+00
   25.700   1.294E+00
   25.800   1.272E+00
   25.900   1.251E+00
   26.000   1.231E+00
   26.100   1.212E+00
   26.200   1.192E+00
   26.300   1.174E+00
   26.400   1.155E+00
   26.500   1.138E+00
   26.600   1.120E+00
   26.700   1.103E+00
   26.800   1.087E+00
   26.900   1.071E+00
   27.000   1.055E+00
   27.100   1.040E+00
   27.200   1.025E+00
   27.300   1.010E+00
   27.400   9.957E-01
   27.500   9.817E-01
   27.600   9.680E-01
   27.700   9.546E-01
   27.800   9.416E-01
   27.900   9.288E-01
   28.000   9.163E-01
   28.100   9.040E-01
   28.200   8.921E-01
   28.300   8.803E-01
   28.400   8.689E-01
   28.500   8.576E-01
   28.600   8.466E-01
   28.700   8.359E-01
   28.800   8.253E-01
   28.900   8.150E-01
   29.000   8.048E-01
   29.100   7.949E-01
   29.200   7.852E-01
   29.300   7.757E-01
   29.400   7.663E-01
   29.500   7.571E-01
   29.600   7.481E-01
   29.700   7.393E-01
   29.800   7.307E-01
   29.900   7.222E-01
   30.000   7.138E-01
 
 Z=  40 A= 104  D1M-QRPA
   E[MeV]   fQRPA[mb/MeV]
    0.100   6.231E-05
    0.200   2.493E-04
    0.300   5.613E-04
    0.400   9.987E-04
    0.500   1.562E-03
    0.600   2.252E-03
    0.700   3.070E-03
    0.800   4.016E-03
    0.900   5.093E-03
    1.000   6.301E-03
    1.100   7.642E-03
    1.200   9.119E-03
    1.300   1.073E-02
    1.400   1.248E-02
    1.500   1.438E-02
    1.600   1.642E-02
    1.700   1.860E-02
    1.800   2.094E-02
    1.900   2.343E-02
    2.000   2.607E-02
    2.100   2.888E-02
    2.200   3.185E-02
    2.300   3.499E-02
    2.400   3.831E-02
    2.500   4.180E-02
    2.600   4.547E-02
    2.700   4.933E-02
    2.800   5.338E-02
    2.900   5.763E-02
    3.000   6.209E-02
    3.100   6.675E-02
    3.200   7.163E-02
    3.300   7.673E-02
    3.400   8.206E-02
    3.500   8.763E-02
    3.600   9.344E-02
    3.700   9.950E-02
    3.800   1.058E-01
    3.900   1.124E-01
    4.000   1.193E-01
    4.100   1.264E-01
    4.200   1.339E-01
    4.300   1.417E-01
    4.400   1.498E-01
    4.500   1.582E-01
    4.600   1.670E-01
    4.700   1.761E-01
    4.800   1.857E-01
    4.900   1.956E-01
    5.000   2.059E-01
    5.100   2.167E-01
    5.200   2.280E-01
    5.300   2.397E-01
    5.400   2.520E-01
    5.500   2.647E-01
    5.600   2.781E-01
    5.700   2.920E-01
    5.800   3.065E-01
    5.900   3.216E-01
    6.000   3.375E-01
    6.100   3.540E-01
    6.200   3.712E-01
    6.300   3.891E-01
    6.400   4.079E-01
    6.500   4.274E-01
    6.600   4.478E-01
    6.700   4.690E-01
    6.800   4.911E-01
    6.900   5.141E-01
    7.000   5.380E-01
    7.100   5.629E-01
    7.200   5.888E-01
    7.300   6.156E-01
    7.400   6.435E-01
    7.500   6.724E-01
    7.600   7.023E-01
    7.700   7.333E-01
    7.800   7.653E-01
    7.900   7.985E-01
    8.000   8.326E-01
    8.100   8.679E-01
    8.200   9.042E-01
    8.300   9.417E-01
    8.400   9.802E-01
    8.500   1.020E+00
    8.600   1.061E+00
    8.700   1.103E+00
    8.800   1.146E+00
    8.900   1.190E+00
    9.000   1.236E+00
    9.100   1.283E+00
    9.200   1.332E+00
    9.300   1.382E+00
    9.400   1.434E+00
    9.500   1.487E+00
    9.600   1.543E+00
    9.700   1.600E+00
    9.800   1.660E+00
    9.900   1.722E+00
   10.000   1.787E+00
   10.100   1.854E+00
   10.200   1.924E+00
   10.300   1.997E+00
   10.400   2.073E+00
   10.500   2.152E+00
   10.600   2.235E+00
   10.700   2.321E+00
   10.800   2.412E+00
   10.900   2.506E+00
   11.000   2.605E+00
   11.100   2.709E+00
   11.200   2.817E+00
   11.300   2.930E+00
   11.400   3.049E+00
   11.500   3.173E+00
   11.600   3.304E+00
   11.700   3.440E+00
   11.800   3.584E+00
   11.900   3.734E+00
   12.000   3.891E+00
   12.100   4.056E+00
   12.200   4.228E+00
   12.300   4.409E+00
   12.400   4.598E+00
   12.500   4.796E+00
   12.600   5.003E+00
   12.700   5.219E+00
   12.800   5.444E+00
   12.900   5.679E+00
   13.000   5.923E+00
   13.100   6.176E+00
   13.200   6.439E+00
   13.300   6.709E+00
   13.400   6.988E+00
   13.500   7.275E+00
   13.600   7.568E+00
   13.700   7.867E+00
   13.800   8.170E+00
   13.900   8.476E+00
   14.000   8.783E+00
   14.100   9.090E+00
   14.200   9.394E+00
   14.300   9.693E+00
   14.400   9.986E+00
   14.500   1.027E+01
   14.600   1.054E+01
   14.700   1.080E+01
   14.800   1.104E+01
   14.900   1.126E+01
   15.000   1.147E+01
   15.100   1.165E+01
   15.200   1.181E+01
   15.300   1.195E+01
   15.400   1.206E+01
   15.500   1.215E+01
   15.600   1.222E+01
   15.700   1.227E+01
   15.800   1.230E+01
   15.900   1.230E+01
   16.000   1.229E+01
   16.100   1.226E+01
   16.200   1.221E+01
   16.300   1.214E+01
   16.400   1.206E+01
   16.500   1.196E+01
   16.600   1.186E+01
   16.700   1.173E+01
   16.800   1.160E+01
   16.900   1.146E+01
   17.000   1.130E+01
   17.100   1.114E+01
   17.200   1.097E+01
   17.300   1.079E+01
   17.400   1.061E+01
   17.500   1.041E+01
   17.600   1.022E+01
   17.700   1.001E+01
   17.800   9.804E+00
   17.900   9.590E+00
   18.000   9.373E+00
   18.100   9.151E+00
   18.200   8.925E+00
   18.300   8.697E+00
   18.400   8.466E+00
   18.500   8.233E+00
   18.600   7.998E+00
   18.700   7.764E+00
   18.800   7.530E+00
   18.900   7.297E+00
   19.000   7.066E+00
   19.100   6.839E+00
   19.200   6.615E+00
   19.300   6.395E+00
   19.400   6.181E+00
   19.500   5.972E+00
   19.600   5.769E+00
   19.700   5.572E+00
   19.800   5.382E+00
   19.900   5.199E+00
   20.000   5.022E+00
   20.100   4.852E+00
   20.200   4.688E+00
   20.300   4.532E+00
   20.400   4.381E+00
   20.500   4.237E+00
   20.600   4.099E+00
   20.700   3.967E+00
   20.800   3.841E+00
   20.900   3.720E+00
   21.000   3.604E+00
   21.100   3.494E+00
   21.200   3.388E+00
   21.300   3.287E+00
   21.400   3.190E+00
   21.500   3.097E+00
   21.600   3.008E+00
   21.700   2.923E+00
   21.800   2.842E+00
   21.900   2.763E+00
   22.000   2.689E+00
   22.100   2.617E+00
   22.200   2.548E+00
   22.300   2.482E+00
   22.400   2.418E+00
   22.500   2.357E+00
   22.600   2.298E+00
   22.700   2.242E+00
   22.800   2.188E+00
   22.900   2.135E+00
   23.000   2.085E+00
   23.100   2.036E+00
   23.200   1.990E+00
   23.300   1.945E+00
   23.400   1.901E+00
   23.500   1.859E+00
   23.600   1.819E+00
   23.700   1.780E+00
   23.800   1.742E+00
   23.900   1.706E+00
   24.000   1.670E+00
   24.100   1.636E+00
   24.200   1.603E+00
   24.300   1.571E+00
   24.400   1.540E+00
   24.500   1.510E+00
   24.600   1.481E+00
   24.700   1.453E+00
   24.800   1.426E+00
   24.900   1.399E+00
   25.000   1.374E+00
   25.100   1.349E+00
   25.200   1.324E+00
   25.300   1.301E+00
   25.400   1.278E+00
   25.500   1.256E+00
   25.600   1.234E+00
   25.700   1.213E+00
   25.800   1.193E+00
   25.900   1.173E+00
   26.000   1.154E+00
   26.100   1.135E+00
   26.200   1.116E+00
   26.300   1.099E+00
   26.400   1.081E+00
   26.500   1.064E+00
   26.600   1.048E+00
   26.700   1.032E+00
   26.800   1.016E+00
   26.900   1.000E+00
   27.000   9.855E-01
   27.100   9.709E-01
   27.200   9.567E-01
   27.300   9.428E-01
   27.400   9.292E-01
   27.500   9.159E-01
   27.600   9.029E-01
   27.700   8.903E-01
   27.800   8.779E-01
   27.900   8.658E-01
   28.000   8.539E-01
   28.100   8.424E-01
   28.200   8.310E-01
   28.300   8.200E-01
   28.400   8.091E-01
   28.500   7.985E-01
   28.600   7.881E-01
   28.700   7.780E-01
   28.800   7.680E-01
   28.900   7.582E-01
   29.000   7.487E-01
   29.100   7.393E-01
   29.200   7.302E-01
   29.300   7.212E-01
   29.400   7.124E-01
   29.500   7.038E-01
   29.600   6.953E-01
   29.700   6.870E-01
   29.800   6.789E-01
   29.900   6.709E-01
   30.000   6.630E-01
 
 Z=  40 A= 105  D1M-QRPA-Inter
 E[MeV]  fQRPA[mb/MeV]
    0.100   5.575E-05
    0.200   2.231E-04
    0.300   5.023E-04
    0.400   8.937E-04
    0.500   1.398E-03
    0.600   2.016E-03
    0.700   2.748E-03
    0.800   3.595E-03
    0.900   4.559E-03
    1.000   5.642E-03
    1.100   6.844E-03
    1.200   8.167E-03
    1.300   9.614E-03
    1.400   1.119E-02
    1.500   1.289E-02
    1.600   1.472E-02
    1.700   1.668E-02
    1.800   1.878E-02
    1.900   2.102E-02
    2.000   2.340E-02
    2.100   2.593E-02
    2.200   2.861E-02
    2.300   3.144E-02
    2.400   3.443E-02
    2.500   3.758E-02
    2.600   4.090E-02
    2.700   4.440E-02
    2.800   4.807E-02
    2.900   5.192E-02
    3.000   5.596E-02
    3.100   6.020E-02
    3.200   6.463E-02
    3.300   6.927E-02
    3.400   7.412E-02
    3.500   7.919E-02
    3.600   8.449E-02
    3.700   9.001E-02
    3.800   9.577E-02
    3.900   1.018E-01
    4.000   1.080E-01
    4.100   1.146E-01
    4.200   1.214E-01
    4.300   1.284E-01
    4.400   1.358E-01
    4.500   1.435E-01
    4.600   1.515E-01
    4.700   1.598E-01
    4.800   1.685E-01
    4.900   1.776E-01
    5.000   1.870E-01
    5.100   1.969E-01
    5.200   2.071E-01
    5.300   2.179E-01
    5.400   2.291E-01
    5.500   2.408E-01
    5.600   2.530E-01
    5.700   2.658E-01
    5.800   2.791E-01
    5.900   2.931E-01
    6.000   3.077E-01
    6.100   3.230E-01
    6.200   3.390E-01
    6.300   3.557E-01
    6.400   3.732E-01
    6.500   3.914E-01
    6.600   4.105E-01
    6.700   4.304E-01
    6.800   4.512E-01
    6.900   4.728E-01
    7.000   4.954E-01
    7.100   5.189E-01
    7.200   5.434E-01
    7.300   5.688E-01
    7.400   5.953E-01
    7.500   6.227E-01
    7.600   6.511E-01
    7.700   6.805E-01
    7.800   7.109E-01
    7.900   7.423E-01
    8.000   7.747E-01
    8.100   8.081E-01
    8.200   8.424E-01
    8.300   8.777E-01
    8.400   9.139E-01
    8.500   9.511E-01
    8.600   9.892E-01
    8.700   1.028E+00
    8.800   1.068E+00
    8.900   1.109E+00
    9.000   1.151E+00
    9.100   1.195E+00
    9.200   1.239E+00
    9.300   1.285E+00
    9.400   1.332E+00
    9.500   1.381E+00
    9.600   1.432E+00
    9.700   1.484E+00
    9.800   1.538E+00
    9.900   1.595E+00
   10.000   1.653E+00
   10.100   1.714E+00
   10.200   1.778E+00
   10.300   1.844E+00
   10.400   1.913E+00
   10.500   1.985E+00
   10.600   2.061E+00
   10.700   2.140E+00
   10.800   2.222E+00
   10.900   2.309E+00
   11.000   2.400E+00
   11.100   2.495E+00
   11.200   2.595E+00
   11.300   2.699E+00
   11.400   2.809E+00
   11.500   2.924E+00
   11.600   3.045E+00
   11.700   3.172E+00
   11.800   3.305E+00
   11.900   3.445E+00
   12.000   3.591E+00
   12.100   3.745E+00
   12.200   3.907E+00
   12.300   4.077E+00
   12.400   4.255E+00
   12.500   4.442E+00
   12.600   4.637E+00
   12.700   4.842E+00
   12.800   5.057E+00
   12.900   5.281E+00
   13.000   5.515E+00
   13.100   5.758E+00
   13.200   6.012E+00
   13.300   6.275E+00
   13.400   6.547E+00
   13.500   6.828E+00
   13.600   7.118E+00
   13.700   7.416E+00
   13.800   7.720E+00
   13.900   8.030E+00
   14.000   8.344E+00
   14.100   8.660E+00
   14.200   8.977E+00
   14.300   9.292E+00
   14.400   9.603E+00
   14.500   9.907E+00
   14.600   1.020E+01
   14.700   1.048E+01
   14.800   1.075E+01
   14.900   1.100E+01
   15.000   1.122E+01
   15.100   1.143E+01
   15.200   1.161E+01
   15.300   1.177E+01
   15.400   1.190E+01
   15.500   1.200E+01
   15.600   1.208E+01
   15.700   1.214E+01
   15.800   1.217E+01
   15.900   1.218E+01
   16.000   1.216E+01
   16.100   1.213E+01
   16.200   1.209E+01
   16.300   1.202E+01
   16.400   1.194E+01
   16.500   1.185E+01
   16.600   1.175E+01
   16.700   1.164E+01
   16.800   1.151E+01
   16.900   1.138E+01
   17.000   1.124E+01
   17.100   1.109E+01
   17.200   1.093E+01
   17.300   1.077E+01
   17.400   1.060E+01
   17.500   1.042E+01
   17.600   1.024E+01
   17.700   1.006E+01
   17.800   9.868E+00
   17.900   9.675E+00
   18.000   9.480E+00
   18.100   9.283E+00
   18.200   9.085E+00
   18.300   8.886E+00
   18.400   8.686E+00
   18.500   8.487E+00
   18.600   8.287E+00
   18.700   8.088E+00
   18.800   7.889E+00
   18.900   7.691E+00
   19.000   7.494E+00
   19.100   7.297E+00
   19.200   7.100E+00
   19.300   6.904E+00
   19.400   6.709E+00
   19.500   6.515E+00
   19.600   6.321E+00
   19.700   6.129E+00
   19.800   5.938E+00
   19.900   5.749E+00
   20.000   5.563E+00
   20.100   5.379E+00
   20.200   5.200E+00
   20.300   5.023E+00
   20.400   4.852E+00
   20.500   4.685E+00
   20.600   4.523E+00
   20.700   4.366E+00
   20.800   4.215E+00
   20.900   4.070E+00
   21.000   3.930E+00
   21.100   3.796E+00
   21.200   3.668E+00
   21.300   3.545E+00
   21.400   3.428E+00
   21.500   3.315E+00
   21.600   3.208E+00
   21.700   3.105E+00
   21.800   3.008E+00
   21.900   2.914E+00
   22.000   2.825E+00
   22.100   2.740E+00
   22.200   2.658E+00
   22.300   2.581E+00
   22.400   2.506E+00
   22.500   2.435E+00
   22.600   2.367E+00
   22.700   2.302E+00
   22.800   2.240E+00
   22.900   2.180E+00
   23.000   2.123E+00
   23.100   2.068E+00
   23.200   2.016E+00
   23.300   1.965E+00
   23.400   1.917E+00
   23.500   1.870E+00
   23.600   1.826E+00
   23.700   1.783E+00
   23.800   1.741E+00
   23.900   1.701E+00
   24.000   1.663E+00
   24.100   1.626E+00
   24.200   1.590E+00
   24.300   1.556E+00
   24.400   1.522E+00
   24.500   1.490E+00
   24.600   1.459E+00
   24.700   1.429E+00
   24.800   1.400E+00
   24.900   1.372E+00
   25.000   1.345E+00
   25.100   1.319E+00
   25.200   1.294E+00
   25.300   1.269E+00
   25.400   1.245E+00
   25.500   1.222E+00
   25.600   1.200E+00
   25.700   1.178E+00
   25.800   1.157E+00
   25.900   1.136E+00
   26.000   1.116E+00
   26.100   1.097E+00
   26.200   1.078E+00
   26.300   1.060E+00
   26.400   1.042E+00
   26.500   1.025E+00
   26.600   1.008E+00
   26.700   9.916E-01
   26.800   9.756E-01
   26.900   9.601E-01
   27.000   9.450E-01
   27.100   9.303E-01
   27.200   9.159E-01
   27.300   9.019E-01
   27.400   8.883E-01
   27.500   8.749E-01
   27.600   8.620E-01
   27.700   8.493E-01
   27.800   8.369E-01
   27.900   8.248E-01
   28.000   8.130E-01
   28.100   8.015E-01
   28.200   7.903E-01
   28.300   7.793E-01
   28.400   7.685E-01
   28.500   7.580E-01
   28.600   7.478E-01
   28.700   7.377E-01
   28.800   7.279E-01
   28.900   7.183E-01
   29.000   7.089E-01
   29.100   6.997E-01
   29.200   6.907E-01
   29.300   6.818E-01
   29.400   6.732E-01
   29.500   6.647E-01
   29.600   6.564E-01
   29.700   6.483E-01
   29.800   6.404E-01
   29.900   6.326E-01
   30.000   6.249E-01
 
 Z=  40 A= 106  D1M-QRPA
   E[MeV]   fQRPA[mb/MeV]
    0.100   4.971E-05
    0.200   1.989E-04
    0.300   4.478E-04
    0.400   7.968E-04
    0.500   1.246E-03
    0.600   1.797E-03
    0.700   2.450E-03
    0.800   3.207E-03
    0.900   4.067E-03
    1.000   5.033E-03
    1.100   6.106E-03
    1.200   7.288E-03
    1.300   8.581E-03
    1.400   9.987E-03
    1.500   1.151E-02
    1.600   1.314E-02
    1.700   1.490E-02
    1.800   1.678E-02
    1.900   1.879E-02
    2.000   2.093E-02
    2.100   2.319E-02
    2.200   2.560E-02
    2.300   2.815E-02
    2.400   3.083E-02
    2.500   3.367E-02
    2.600   3.667E-02
    2.700   3.982E-02
    2.800   4.313E-02
    2.900   4.661E-02
    3.000   5.026E-02
    3.100   5.410E-02
    3.200   5.811E-02
    3.300   6.232E-02
    3.400   6.671E-02
    3.500   7.131E-02
    3.600   7.612E-02
    3.700   8.113E-02
    3.800   8.636E-02
    3.900   9.182E-02
    4.000   9.751E-02
    4.100   1.034E-01
    4.200   1.096E-01
    4.300   1.160E-01
    4.400   1.227E-01
    4.500   1.297E-01
    4.600   1.370E-01
    4.700   1.445E-01
    4.800   1.524E-01
    4.900   1.607E-01
    5.000   1.692E-01
    5.100   1.782E-01
    5.200   1.875E-01
    5.300   1.973E-01
    5.400   2.075E-01
    5.500   2.182E-01
    5.600   2.294E-01
    5.700   2.411E-01
    5.800   2.533E-01
    5.900   2.662E-01
    6.000   2.796E-01
    6.100   2.937E-01
    6.200   3.085E-01
    6.300   3.240E-01
    6.400   3.402E-01
    6.500   3.572E-01
    6.600   3.750E-01
    6.700   3.936E-01
    6.800   4.130E-01
    6.900   4.333E-01
    7.000   4.546E-01
    7.100   4.767E-01
    7.200   4.997E-01
    7.300   5.237E-01
    7.400   5.487E-01
    7.500   5.746E-01
    7.600   6.014E-01
    7.700   6.292E-01
    7.800   6.579E-01
    7.900   6.876E-01
    8.000   7.182E-01
    8.100   7.496E-01
    8.200   7.819E-01
    8.300   8.151E-01
    8.400   8.490E-01
    8.500   8.837E-01
    8.600   9.192E-01
    8.700   9.554E-01
    8.800   9.925E-01
    8.900   1.030E+00
    9.000   1.069E+00
    9.100   1.109E+00
    9.200   1.149E+00
    9.300   1.191E+00
    9.400   1.234E+00
    9.500   1.278E+00
    9.600   1.324E+00
    9.700   1.371E+00
    9.800   1.420E+00
    9.900   1.471E+00
   10.000   1.524E+00
   10.100   1.579E+00
   10.200   1.637E+00
   10.300   1.697E+00
   10.400   1.759E+00
   10.500   1.825E+00
   10.600   1.893E+00
   10.700   1.965E+00
   10.800   2.041E+00
   10.900   2.120E+00
   11.000   2.203E+00
   11.100   2.290E+00
   11.200   2.382E+00
   11.300   2.478E+00
   11.400   2.579E+00
   11.500   2.685E+00
   11.600   2.797E+00
   11.700   2.914E+00
   11.800   3.037E+00
   11.900   3.167E+00
   12.000   3.303E+00
   12.100   3.447E+00
   12.200   3.597E+00
   12.300   3.756E+00
   12.400   3.923E+00
   12.500   4.098E+00
   12.600   4.283E+00
   12.700   4.477E+00
   12.800   4.680E+00
   12.900   4.893E+00
   13.000   5.116E+00
   13.100   5.349E+00
   13.200   5.593E+00
   13.300   5.847E+00
   13.400   6.112E+00
   13.500   6.387E+00
   13.600   6.671E+00
   13.700   6.966E+00
   13.800   7.269E+00
   13.900   7.580E+00
   14.000   7.898E+00
   14.100   8.221E+00
   14.200   8.548E+00
   14.300   8.875E+00
   14.400   9.201E+00
   14.500   9.523E+00
   14.600   9.837E+00
   14.700   1.014E+01
   14.800   1.043E+01
   14.900   1.070E+01
   15.000   1.095E+01
   15.100   1.118E+01
   15.200   1.138E+01
   15.300   1.155E+01
   15.400   1.170E+01
   15.500   1.181E+01
   15.600   1.190E+01
   15.700   1.196E+01
   15.800   1.200E+01
   15.900   1.201E+01
   16.000   1.200E+01
   16.100   1.197E+01
   16.200   1.192E+01
   16.300   1.186E+01
   16.400   1.179E+01
   16.500   1.170E+01
   16.600   1.160E+01
   16.700   1.150E+01
   16.800   1.138E+01
   16.900   1.126E+01
   17.000   1.113E+01
   17.100   1.100E+01
   17.200   1.086E+01
   17.300   1.071E+01
   17.400   1.055E+01
   17.500   1.040E+01
   17.600   1.023E+01
   17.700   1.007E+01
   17.800   9.896E+00
   17.900   9.726E+00
   18.000   9.555E+00
   18.100   9.384E+00
   18.200   9.214E+00
   18.300   9.047E+00
   18.400   8.881E+00
   18.500   8.717E+00
   18.600   8.555E+00
   18.700   8.395E+00
   18.800   8.236E+00
   18.900   8.077E+00
   19.000   7.918E+00
   19.100   7.757E+00
   19.200   7.594E+00
   19.300   7.427E+00
   19.400   7.256E+00
   19.500   7.081E+00
   19.600   6.901E+00
   19.700   6.717E+00
   19.800   6.528E+00
   19.900   6.335E+00
   20.000   6.140E+00
   20.100   5.943E+00
   20.200   5.746E+00
   20.300   5.549E+00
   20.400   5.353E+00
   20.500   5.161E+00
   20.600   4.973E+00
   20.700   4.789E+00
   20.800   4.610E+00
   20.900   4.437E+00
   21.000   4.271E+00
   21.100   4.111E+00
   21.200   3.957E+00
   21.300   3.810E+00
   21.400   3.670E+00
   21.500   3.536E+00
   21.600   3.409E+00
   21.700   3.287E+00
   21.800   3.172E+00
   21.900   3.062E+00
   22.000   2.958E+00
   22.100   2.858E+00
   22.200   2.764E+00
   22.300   2.674E+00
   22.400   2.589E+00
   22.500   2.507E+00
   22.600   2.430E+00
   22.700   2.356E+00
   22.800   2.286E+00
   22.900   2.218E+00
   23.000   2.154E+00
   23.100   2.093E+00
   23.200   2.035E+00
   23.300   1.979E+00
   23.400   1.926E+00
   23.500   1.875E+00
   23.600   1.826E+00
   23.700   1.779E+00
   23.800   1.734E+00
   23.900   1.691E+00
   24.000   1.649E+00
   24.100   1.610E+00
   24.200   1.571E+00
   24.300   1.535E+00
   24.400   1.499E+00
   24.500   1.465E+00
   24.600   1.432E+00
   24.700   1.401E+00
   24.800   1.370E+00
   24.900   1.341E+00
   25.000   1.313E+00
   25.100   1.285E+00
   25.200   1.259E+00
   25.300   1.233E+00
   25.400   1.209E+00
   25.500   1.185E+00
   25.600   1.162E+00
   25.700   1.139E+00
   25.800   1.118E+00
   25.900   1.097E+00
   26.000   1.076E+00
   26.100   1.056E+00
   26.200   1.037E+00
   26.300   1.019E+00
   26.400   1.001E+00
   26.500   9.832E-01
   26.600   9.662E-01
   26.700   9.497E-01
   26.800   9.337E-01
   26.900   9.180E-01
   27.000   9.029E-01
   27.100   8.881E-01
   27.200   8.737E-01
   27.300   8.597E-01
   27.400   8.461E-01
   27.500   8.328E-01
   27.600   8.199E-01
   27.700   8.073E-01
   27.800   7.950E-01
   27.900   7.830E-01
   28.000   7.713E-01
   28.100   7.599E-01
   28.200   7.488E-01
   28.300   7.380E-01
   28.400   7.274E-01
   28.500   7.170E-01
   28.600   7.069E-01
   28.700   6.970E-01
   28.800   6.874E-01
   28.900   6.780E-01
   29.000   6.688E-01
   29.100   6.597E-01
   29.200   6.509E-01
   29.300   6.423E-01
   29.400   6.339E-01
   29.500   6.256E-01
   29.600   6.175E-01
   29.700   6.096E-01
   29.800   6.019E-01
   29.900   5.943E-01
   30.000   5.869E-01
 
 Z=  40 A= 107  D1M-QRPA-Inter
 E[MeV]  fQRPA[mb/MeV]
    0.100   6.867E-05
    0.200   2.748E-04
    0.300   6.186E-04
    0.400   1.101E-03
    0.500   1.722E-03
    0.600   2.482E-03
    0.700   3.384E-03
    0.800   4.428E-03
    0.900   5.614E-03
    1.000   6.946E-03
    1.100   8.424E-03
    1.200   1.005E-02
    1.300   1.182E-02
    1.400   1.375E-02
    1.500   1.583E-02
    1.600   1.807E-02
    1.700   2.047E-02
    1.800   2.303E-02
    1.900   2.575E-02
    2.000   2.864E-02
    2.100   3.170E-02
    2.200   3.494E-02
    2.300   3.837E-02
    2.400   4.197E-02
    2.500   4.577E-02
    2.600   4.977E-02
    2.700   5.397E-02
    2.800   5.838E-02
    2.900   6.301E-02
    3.000   6.786E-02
    3.100   7.295E-02
    3.200   7.828E-02
    3.300   8.387E-02
    3.400   8.971E-02
    3.500   9.584E-02
    3.600   1.022E-01
    3.700   1.089E-01
    3.800   1.160E-01
    3.900   1.233E-01
    4.000   1.310E-01
    4.100   1.390E-01
    4.200   1.474E-01
    4.300   1.562E-01
    4.400   1.654E-01
    4.500   1.751E-01
    4.600   1.852E-01
    4.700   1.957E-01
    4.800   2.067E-01
    4.900   2.183E-01
    5.000   2.304E-01
    5.100   2.430E-01
    5.200   2.562E-01
    5.300   2.700E-01
    5.400   2.844E-01
    5.500   2.995E-01
    5.600   3.153E-01
    5.700   3.317E-01
    5.800   3.489E-01
    5.900   3.668E-01
    6.000   3.855E-01
    6.100   4.050E-01
    6.200   4.252E-01
    6.300   4.463E-01
    6.400   4.682E-01
    6.500   4.910E-01
    6.600   5.146E-01
    6.700   5.390E-01
    6.800   5.643E-01
    6.900   5.905E-01
    7.000   6.175E-01
    7.100   6.453E-01
    7.200   6.740E-01
    7.300   7.035E-01
    7.400   7.339E-01
    7.500   7.651E-01
    7.600   7.973E-01
    7.700   8.303E-01
    7.800   8.643E-01
    7.900   8.993E-01
    8.000   9.352E-01
    8.100   9.721E-01
    8.200   1.010E+00
    8.300   1.049E+00
    8.400   1.089E+00
    8.500   1.130E+00
    8.600   1.172E+00
    8.700   1.216E+00
    8.800   1.261E+00
    8.900   1.307E+00
    9.000   1.354E+00
    9.100   1.404E+00
    9.200   1.454E+00
    9.300   1.507E+00
    9.400   1.561E+00
    9.500   1.618E+00
    9.600   1.677E+00
    9.700   1.738E+00
    9.800   1.802E+00
    9.900   1.868E+00
   10.000   1.938E+00
   10.100   2.010E+00
   10.200   2.086E+00
   10.300   2.165E+00
   10.400   2.248E+00
   10.500   2.334E+00
   10.600   2.425E+00
   10.700   2.521E+00
   10.800   2.621E+00
   10.900   2.725E+00
   11.000   2.836E+00
   11.100   2.951E+00
   11.200   3.072E+00
   11.300   3.200E+00
   11.400   3.333E+00
   11.500   3.473E+00
   11.600   3.620E+00
   11.700   3.773E+00
   11.800   3.935E+00
   11.900   4.104E+00
   12.000   4.281E+00
   12.100   4.466E+00
   12.200   4.660E+00
   12.300   4.863E+00
   12.400   5.075E+00
   12.500   5.296E+00
   12.600   5.528E+00
   12.700   5.769E+00
   12.800   6.020E+00
   12.900   6.280E+00
   13.000   6.550E+00
   13.100   6.829E+00
   13.200   7.117E+00
   13.300   7.413E+00
   13.400   7.715E+00
   13.500   8.022E+00
   13.600   8.334E+00
   13.700   8.648E+00
   13.800   8.962E+00
   13.900   9.273E+00
   14.000   9.581E+00
   14.100   9.881E+00
   14.200   1.017E+01
   14.300   1.045E+01
   14.400   1.071E+01
   14.500   1.096E+01
   14.600   1.118E+01
   14.700   1.138E+01
   14.800   1.156E+01
   14.900   1.172E+01
   15.000   1.185E+01
   15.100   1.195E+01
   15.200   1.203E+01
   15.300   1.209E+01
   15.400   1.212E+01
   15.500   1.213E+01
   15.600   1.211E+01
   15.700   1.208E+01
   15.800   1.204E+01
   15.900   1.197E+01
   16.000   1.189E+01
   16.100   1.180E+01
   16.200   1.170E+01
   16.300   1.159E+01
   16.400   1.147E+01
   16.500   1.134E+01
   16.600   1.120E+01
   16.700   1.106E+01
   16.800   1.091E+01
   16.900   1.076E+01
   17.000   1.060E+01
   17.100   1.043E+01
   17.200   1.026E+01
   17.300   1.009E+01
   17.400   9.921E+00
   17.500   9.748E+00
   17.600   9.576E+00
   17.700   9.405E+00
   17.800   9.237E+00
   17.900   9.071E+00
   18.000   8.909E+00
   18.100   8.752E+00
   18.200   8.599E+00
   18.300   8.451E+00
   18.400   8.308E+00
   18.500   8.169E+00
   18.600   8.033E+00
   18.700   7.902E+00
   18.800   7.772E+00
   18.900   7.645E+00
   19.000   7.518E+00
   19.100   7.391E+00
   19.200   7.263E+00
   19.300   7.133E+00
   19.400   7.000E+00
   19.500   6.864E+00
   19.600   6.724E+00
   19.700   6.581E+00
   19.800   6.433E+00
   19.900   6.281E+00
   20.000   6.126E+00
   20.100   5.967E+00
   20.200   5.807E+00
   20.300   5.644E+00
   20.400   5.480E+00
   20.500   5.317E+00
   20.600   5.154E+00
   20.700   4.992E+00
   20.800   4.832E+00
   20.900   4.674E+00
   21.000   4.520E+00
   21.100   4.369E+00
   21.200   4.221E+00
   21.300   4.078E+00
   21.400   3.939E+00
   21.500   3.805E+00
   21.600   3.675E+00
   21.700   3.549E+00
   21.800   3.428E+00
   21.900   3.312E+00
   22.000   3.201E+00
   22.100   3.094E+00
   22.200   2.991E+00
   22.300   2.893E+00
   22.400   2.799E+00
   22.500   2.710E+00
   22.600   2.624E+00
   22.700   2.542E+00
   22.800   2.464E+00
   22.900   2.389E+00
   23.000   2.318E+00
   23.100   2.250E+00
   23.200   2.184E+00
   23.300   2.122E+00
   23.400   2.063E+00
   23.500   2.006E+00
   23.600   1.952E+00
   23.700   1.900E+00
   23.800   1.850E+00
   23.900   1.802E+00
   24.000   1.757E+00
   24.100   1.713E+00
   24.200   1.671E+00
   24.300   1.631E+00
   24.400   1.592E+00
   24.500   1.555E+00
   24.600   1.519E+00
   24.700   1.485E+00
   24.800   1.451E+00
   24.900   1.420E+00
   25.000   1.389E+00
   25.100   1.359E+00
   25.200   1.331E+00
   25.300   1.303E+00
   25.400   1.277E+00
   25.500   1.251E+00
   25.600   1.226E+00
   25.700   1.202E+00
   25.800   1.179E+00
   25.900   1.156E+00
   26.000   1.135E+00
   26.100   1.113E+00
   26.200   1.093E+00
   26.300   1.073E+00
   26.400   1.054E+00
   26.500   1.035E+00
   26.600   1.017E+00
   26.700   9.998E-01
   26.800   9.828E-01
   26.900   9.662E-01
   27.000   9.501E-01
   27.100   9.345E-01
   27.200   9.193E-01
   27.300   9.045E-01
   27.400   8.901E-01
   27.500   8.760E-01
   27.600   8.624E-01
   27.700   8.491E-01
   27.800   8.361E-01
   27.900   8.235E-01
   28.000   8.112E-01
   28.100   7.992E-01
   28.200   7.875E-01
   28.300   7.761E-01
   28.400   7.649E-01
   28.500   7.540E-01
   28.600   7.434E-01
   28.700   7.330E-01
   28.800   7.229E-01
   28.900   7.130E-01
   29.000   7.033E-01
   29.100   6.938E-01
   29.200   6.846E-01
   29.300   6.755E-01
   29.400   6.667E-01
   29.500   6.580E-01
   29.600   6.496E-01
   29.700   6.413E-01
   29.800   6.332E-01
   29.900   6.252E-01
   30.000   6.174E-01
 
 Z=  40 A= 108  D1M-QRPA
   E[MeV]   fQRPA[mb/MeV]
    0.100   9.384E-05
    0.200   3.755E-04
    0.300   8.453E-04
    0.400   1.504E-03
    0.500   2.352E-03
    0.600   3.392E-03
    0.700   4.623E-03
    0.800   6.047E-03
    0.900   7.666E-03
    1.000   9.481E-03
    1.100   1.149E-02
    1.200   1.371E-02
    1.300   1.612E-02
    1.400   1.873E-02
    1.500   2.155E-02
    1.600   2.457E-02
    1.700   2.780E-02
    1.800   3.125E-02
    1.900   3.490E-02
    2.000   3.877E-02
    2.100   4.287E-02
    2.200   4.718E-02
    2.300   5.173E-02
    2.400   5.652E-02
    2.500   6.154E-02
    2.600   6.682E-02
    2.700   7.236E-02
    2.800   7.817E-02
    2.900   8.425E-02
    3.000   9.063E-02
    3.100   9.731E-02
    3.200   1.043E-01
    3.300   1.116E-01
    3.400   1.193E-01
    3.500   1.274E-01
    3.600   1.358E-01
    3.700   1.447E-01
    3.800   1.540E-01
    3.900   1.638E-01
    4.000   1.741E-01
    4.100   1.848E-01
    4.200   1.962E-01
    4.300   2.081E-01
    4.400   2.206E-01
    4.500   2.338E-01
    4.600   2.476E-01
    4.700   2.621E-01
    4.800   2.774E-01
    4.900   2.934E-01
    5.000   3.102E-01
    5.100   3.278E-01
    5.200   3.462E-01
    5.300   3.655E-01
    5.400   3.856E-01
    5.500   4.066E-01
    5.600   4.286E-01
    5.700   4.515E-01
    5.800   4.753E-01
    5.900   5.000E-01
    6.000   5.256E-01
    6.100   5.522E-01
    6.200   5.798E-01
    6.300   6.082E-01
    6.400   6.375E-01
    6.500   6.676E-01
    6.600   6.985E-01
    6.700   7.303E-01
    6.800   7.627E-01
    6.900   7.958E-01
    7.000   8.296E-01
    7.100   8.640E-01
    7.200   8.991E-01
    7.300   9.347E-01
    7.400   9.709E-01
    7.500   1.008E+00
    7.600   1.045E+00
    7.700   1.084E+00
    7.800   1.123E+00
    7.900   1.163E+00
    8.000   1.205E+00
    8.100   1.247E+00
    8.200   1.290E+00
    8.300   1.335E+00
    8.400   1.382E+00
    8.500   1.430E+00
    8.600   1.479E+00
    8.700   1.531E+00
    8.800   1.584E+00
    8.900   1.640E+00
    9.000   1.697E+00
    9.100   1.758E+00
    9.200   1.820E+00
    9.300   1.886E+00
    9.400   1.954E+00
    9.500   2.026E+00
    9.600   2.101E+00
    9.700   2.179E+00
    9.800   2.261E+00
    9.900   2.346E+00
   10.000   2.436E+00
   10.100   2.530E+00
   10.200   2.629E+00
   10.300   2.732E+00
   10.400   2.840E+00
   10.500   2.954E+00
   10.600   3.073E+00
   10.700   3.198E+00
   10.800   3.329E+00
   10.900   3.466E+00
   11.000   3.610E+00
   11.100   3.762E+00
   11.200   3.920E+00
   11.300   4.087E+00
   11.400   4.261E+00
   11.500   4.443E+00
   11.600   4.634E+00
   11.700   4.834E+00
   11.800   5.042E+00
   11.900   5.260E+00
   12.000   5.487E+00
   12.100   5.724E+00
   12.200   5.970E+00
   12.300   6.227E+00
   12.400   6.494E+00
   12.500   6.770E+00
   12.600   7.057E+00
   12.700   7.353E+00
   12.800   7.659E+00
   12.900   7.974E+00
   13.000   8.296E+00
   13.100   8.625E+00
   13.200   8.959E+00
   13.300   9.295E+00
   13.400   9.633E+00
   13.500   9.968E+00
   13.600   1.030E+01
   13.700   1.062E+01
   13.800   1.093E+01
   13.900   1.122E+01
   14.000   1.150E+01
   14.100   1.175E+01
   14.200   1.197E+01
   14.300   1.217E+01
   14.400   1.233E+01
   14.500   1.247E+01
   14.600   1.257E+01
   14.700   1.264E+01
   14.800   1.268E+01
   14.900   1.270E+01
   15.000   1.268E+01
   15.100   1.265E+01
   15.200   1.259E+01
   15.300   1.251E+01
   15.400   1.242E+01
   15.500   1.231E+01
   15.600   1.220E+01
   15.700   1.207E+01
   15.800   1.194E+01
   15.900   1.181E+01
   16.000   1.166E+01
   16.100   1.151E+01
   16.200   1.136E+01
   16.300   1.120E+01
   16.400   1.104E+01
   16.500   1.087E+01
   16.600   1.070E+01
   16.700   1.053E+01
   16.800   1.034E+01
   16.900   1.016E+01
   17.000   9.974E+00
   17.100   9.786E+00
   17.200   9.598E+00
   17.300   9.410E+00
   17.400   9.225E+00
   17.500   9.043E+00
   17.600   8.865E+00
   17.700   8.693E+00
   17.800   8.527E+00
   17.900   8.369E+00
   18.000   8.218E+00
   18.100   8.074E+00
   18.200   7.938E+00
   18.300   7.809E+00
   18.400   7.687E+00
   18.500   7.572E+00
   18.600   7.462E+00
   18.700   7.356E+00
   18.800   7.255E+00
   18.900   7.157E+00
   19.000   7.061E+00
   19.100   6.966E+00
   19.200   6.871E+00
   19.300   6.776E+00
   19.400   6.680E+00
   19.500   6.582E+00
   19.600   6.481E+00
   19.700   6.378E+00
   19.800   6.270E+00
   19.900   6.160E+00
   20.000   6.045E+00
   20.100   5.927E+00
   20.200   5.804E+00
   20.300   5.679E+00
   20.400   5.550E+00
   20.500   5.418E+00
   20.600   5.283E+00
   20.700   5.147E+00
   20.800   5.009E+00
   20.900   4.870E+00
   21.000   4.731E+00
   21.100   4.592E+00
   21.200   4.454E+00
   21.300   4.317E+00
   21.400   4.182E+00
   21.500   4.049E+00
   21.600   3.918E+00
   21.700   3.790E+00
   21.800   3.666E+00
   21.900   3.544E+00
   22.000   3.427E+00
   22.100   3.313E+00
   22.200   3.203E+00
   22.300   3.097E+00
   22.400   2.995E+00
   22.500   2.897E+00
   22.600   2.803E+00
   22.700   2.713E+00
   22.800   2.627E+00
   22.900   2.545E+00
   23.000   2.466E+00
   23.100   2.391E+00
   23.200   2.320E+00
   23.300   2.251E+00
   23.400   2.186E+00
   23.500   2.123E+00
   23.600   2.064E+00
   23.700   2.007E+00
   23.800   1.953E+00
   23.900   1.901E+00
   24.000   1.851E+00
   24.100   1.803E+00
   24.200   1.758E+00
   24.300   1.714E+00
   24.400   1.672E+00
   24.500   1.632E+00
   24.600   1.593E+00
   24.700   1.556E+00
   24.800   1.521E+00
   24.900   1.486E+00
   25.000   1.454E+00
   25.100   1.422E+00
   25.200   1.391E+00
   25.300   1.362E+00
   25.400   1.334E+00
   25.500   1.306E+00
   25.600   1.280E+00
   25.700   1.255E+00
   25.800   1.230E+00
   25.900   1.206E+00
   26.000   1.183E+00
   26.100   1.161E+00
   26.200   1.139E+00
   26.300   1.118E+00
   26.400   1.098E+00
   26.500   1.079E+00
   26.600   1.060E+00
   26.700   1.041E+00
   26.800   1.023E+00
   26.900   1.006E+00
   27.000   9.890E-01
   27.100   9.727E-01
   27.200   9.567E-01
   27.300   9.412E-01
   27.400   9.262E-01
   27.500   9.115E-01
   27.600   8.973E-01
   27.700   8.834E-01
   27.800   8.699E-01
   27.900   8.567E-01
   28.000   8.439E-01
   28.100   8.314E-01
   28.200   8.192E-01
   28.300   8.073E-01
   28.400   7.957E-01
   28.500   7.843E-01
   28.600   7.733E-01
   28.700   7.625E-01
   28.800   7.520E-01
   28.900   7.417E-01
   29.000   7.316E-01
   29.100   7.218E-01
   29.200   7.122E-01
   29.300   7.028E-01
   29.400   6.936E-01
   29.500   6.846E-01
   29.600   6.758E-01
   29.700   6.672E-01
   29.800   6.588E-01
   29.900   6.506E-01
   30.000   6.425E-01
 
