 Z=  44 A= 102  D1M-QRPA
   E[MeV]   fQRPA[mb/MeV]
    0.100   1.280E-04
    0.200   5.115E-04
    0.300   1.148E-03
    0.400   2.035E-03
    0.500   3.169E-03
    0.600   4.544E-03
    0.700   6.157E-03
    0.800   8.005E-03
    0.900   1.008E-02
    1.000   1.239E-02
    1.100   1.492E-02
    1.200   1.768E-02
    1.300   2.067E-02
    1.400   2.388E-02
    1.500   2.733E-02
    1.600   3.100E-02
    1.700   3.492E-02
    1.800   3.907E-02
    1.900   4.346E-02
    2.000   4.811E-02
    2.100   5.300E-02
    2.200   5.816E-02
    2.300   6.359E-02
    2.400   6.928E-02
    2.500   7.526E-02
    2.600   8.152E-02
    2.700   8.808E-02
    2.800   9.494E-02
    2.900   1.021E-01
    3.000   1.096E-01
    3.100   1.174E-01
    3.200   1.256E-01
    3.300   1.341E-01
    3.400   1.429E-01
    3.500   1.522E-01
    3.600   1.618E-01
    3.700   1.718E-01
    3.800   1.822E-01
    3.900   1.930E-01
    4.000   2.042E-01
    4.100   2.159E-01
    4.200   2.281E-01
    4.300   2.407E-01
    4.400   2.539E-01
    4.500   2.675E-01
    4.600   2.817E-01
    4.700   2.964E-01
    4.800   3.116E-01
    4.900   3.275E-01
    5.000   3.440E-01
    5.100   3.611E-01
    5.200   3.788E-01
    5.300   3.972E-01
    5.400   4.163E-01
    5.500   4.362E-01
    5.600   4.568E-01
    5.700   4.782E-01
    5.800   5.004E-01
    5.900   5.234E-01
    6.000   5.474E-01
    6.100   5.722E-01
    6.200   5.980E-01
    6.300   6.248E-01
    6.400   6.526E-01
    6.500   6.815E-01
    6.600   7.114E-01
    6.700   7.425E-01
    6.800   7.748E-01
    6.900   8.084E-01
    7.000   8.432E-01
    7.100   8.793E-01
    7.200   9.169E-01
    7.300   9.558E-01
    7.400   9.963E-01
    7.500   1.038E+00
    7.600   1.082E+00
    7.700   1.127E+00
    7.800   1.174E+00
    7.900   1.223E+00
    8.000   1.274E+00
    8.100   1.326E+00
    8.200   1.381E+00
    8.300   1.437E+00
    8.400   1.496E+00
    8.500   1.557E+00
    8.600   1.620E+00
    8.700   1.686E+00
    8.800   1.754E+00
    8.900   1.825E+00
    9.000   1.899E+00
    9.100   1.975E+00
    9.200   2.054E+00
    9.300   2.137E+00
    9.400   2.222E+00
    9.500   2.311E+00
    9.600   2.403E+00
    9.700   2.498E+00
    9.800   2.597E+00
    9.900   2.700E+00
   10.000   2.807E+00
   10.100   2.917E+00
   10.200   3.032E+00
   10.300   3.151E+00
   10.400   3.275E+00
   10.500   3.402E+00
   10.600   3.535E+00
   10.700   3.672E+00
   10.800   3.814E+00
   10.900   3.961E+00
   11.000   4.113E+00
   11.100   4.270E+00
   11.200   4.432E+00
   11.300   4.599E+00
   11.400   4.772E+00
   11.500   4.949E+00
   11.600   5.132E+00
   11.700   5.319E+00
   11.800   5.511E+00
   11.900   5.708E+00
   12.000   5.910E+00
   12.100   6.115E+00
   12.200   6.325E+00
   12.300   6.538E+00
   12.400   6.755E+00
   12.500   6.974E+00
   12.600   7.195E+00
   12.700   7.418E+00
   12.800   7.643E+00
   12.900   7.868E+00
   13.000   8.092E+00
   13.100   8.316E+00
   13.200   8.538E+00
   13.300   8.758E+00
   13.400   8.974E+00
   13.500   9.186E+00
   13.600   9.394E+00
   13.700   9.595E+00
   13.800   9.791E+00
   13.900   9.978E+00
   14.000   1.016E+01
   14.100   1.033E+01
   14.200   1.049E+01
   14.300   1.064E+01
   14.400   1.078E+01
   14.500   1.091E+01
   14.600   1.103E+01
   14.700   1.114E+01
   14.800   1.123E+01
   14.900   1.131E+01
   15.000   1.138E+01
   15.100   1.143E+01
   15.200   1.147E+01
   15.300   1.149E+01
   15.400   1.151E+01
   15.500   1.150E+01
   15.600   1.149E+01
   15.700   1.145E+01
   15.800   1.141E+01
   15.900   1.135E+01
   16.000   1.127E+01
   16.100   1.119E+01
   16.200   1.109E+01
   16.300   1.098E+01
   16.400   1.086E+01
   16.500   1.072E+01
   16.600   1.058E+01
   16.700   1.043E+01
   16.800   1.027E+01
   16.900   1.010E+01
   17.000   9.926E+00
   17.100   9.746E+00
   17.200   9.562E+00
   17.300   9.374E+00
   17.400   9.183E+00
   17.500   8.990E+00
   17.600   8.797E+00
   17.700   8.602E+00
   17.800   8.408E+00
   17.900   8.214E+00
   18.000   8.022E+00
   18.100   7.832E+00
   18.200   7.644E+00
   18.300   7.458E+00
   18.400   7.276E+00
   18.500   7.097E+00
   18.600   6.921E+00
   18.700   6.749E+00
   18.800   6.581E+00
   18.900   6.417E+00
   19.000   6.257E+00
   19.100   6.101E+00
   19.200   5.950E+00
   19.300   5.802E+00
   19.400   5.658E+00
   19.500   5.519E+00
   19.600   5.383E+00
   19.700   5.252E+00
   19.800   5.124E+00
   19.900   5.001E+00
   20.000   4.881E+00
   20.100   4.765E+00
   20.200   4.652E+00
   20.300   4.543E+00
   20.400   4.437E+00
   20.500   4.335E+00
   20.600   4.235E+00
   20.700   4.139E+00
   20.800   4.046E+00
   20.900   3.955E+00
   21.000   3.868E+00
   21.100   3.783E+00
   21.200   3.701E+00
   21.300   3.621E+00
   21.400   3.544E+00
   21.500   3.469E+00
   21.600   3.397E+00
   21.700   3.326E+00
   21.800   3.258E+00
   21.900   3.192E+00
   22.000   3.127E+00
   22.100   3.065E+00
   22.200   3.005E+00
   22.300   2.946E+00
   22.400   2.889E+00
   22.500   2.833E+00
   22.600   2.780E+00
   22.700   2.727E+00
   22.800   2.676E+00
   22.900   2.627E+00
   23.000   2.579E+00
   23.100   2.532E+00
   23.200   2.487E+00
   23.300   2.443E+00
   23.400   2.400E+00
   23.500   2.358E+00
   23.600   2.317E+00
   23.700   2.278E+00
   23.800   2.239E+00
   23.900   2.201E+00
   24.000   2.165E+00
   24.100   2.129E+00
   24.200   2.094E+00
   24.300   2.060E+00
   24.400   2.027E+00
   24.500   1.995E+00
   24.600   1.963E+00
   24.700   1.933E+00
   24.800   1.903E+00
   24.900   1.874E+00
   25.000   1.845E+00
   25.100   1.817E+00
   25.200   1.790E+00
   25.300   1.763E+00
   25.400   1.738E+00
   25.500   1.712E+00
   25.600   1.687E+00
   25.700   1.663E+00
   25.800   1.640E+00
   25.900   1.616E+00
   26.000   1.594E+00
   26.100   1.572E+00
   26.200   1.550E+00
   26.300   1.529E+00
   26.400   1.508E+00
   26.500   1.488E+00
   26.600   1.468E+00
   26.700   1.448E+00
   26.800   1.429E+00
   26.900   1.411E+00
   27.000   1.393E+00
   27.100   1.375E+00
   27.200   1.357E+00
   27.300   1.340E+00
   27.400   1.323E+00
   27.500   1.307E+00
   27.600   1.290E+00
   27.700   1.275E+00
   27.800   1.259E+00
   27.900   1.244E+00
   28.000   1.229E+00
   28.100   1.214E+00
   28.200   1.200E+00
   28.300   1.186E+00
   28.400   1.172E+00
   28.500   1.158E+00
   28.600   1.145E+00
   28.700   1.132E+00
   28.800   1.119E+00
   28.900   1.106E+00
   29.000   1.094E+00
   29.100   1.082E+00
   29.200   1.070E+00
   29.300   1.058E+00
   29.400   1.046E+00
   29.500   1.035E+00
   29.600   1.024E+00
   29.700   1.013E+00
   29.800   1.002E+00
   29.900   9.913E-01
   30.000   9.809E-01
 
 Z=  44 A= 103  D1M-QRPA-Inter
 E[MeV]  fQRPA[mb/MeV]
    0.100   1.401E-04
    0.200   5.594E-04
    0.300   1.255E-03
    0.400   2.220E-03
    0.500   3.449E-03
    0.600   4.934E-03
    0.700   6.664E-03
    0.800   8.632E-03
    0.900   1.083E-02
    1.000   1.324E-02
    1.100   1.587E-02
    1.200   1.870E-02
    1.300   2.172E-02
    1.400   2.494E-02
    1.500   2.835E-02
    1.600   3.194E-02
    1.700   3.571E-02
    1.800   3.967E-02
    1.900   4.381E-02
    2.000   4.814E-02
    2.100   5.266E-02
    2.200   5.737E-02
    2.300   6.228E-02
    2.400   6.739E-02
    2.500   7.271E-02
    2.600   7.825E-02
    2.700   8.401E-02
    2.800   9.000E-02
    2.900   9.624E-02
    3.000   1.027E-01
    3.100   1.095E-01
    3.200   1.165E-01
    3.300   1.238E-01
    3.400   1.313E-01
    3.500   1.392E-01
    3.600   1.474E-01
    3.700   1.559E-01
    3.800   1.648E-01
    3.900   1.740E-01
    4.000   1.835E-01
    4.100   1.935E-01
    4.200   2.038E-01
    4.300   2.145E-01
    4.400   2.256E-01
    4.500   2.372E-01
    4.600   2.492E-01
    4.700   2.617E-01
    4.800   2.746E-01
    4.900   2.881E-01
    5.000   3.021E-01
    5.100   3.166E-01
    5.200   3.317E-01
    5.300   3.474E-01
    5.400   3.636E-01
    5.500   3.805E-01
    5.600   3.981E-01
    5.700   4.163E-01
    5.800   4.352E-01
    5.900   4.549E-01
    6.000   4.753E-01
    6.100   4.965E-01
    6.200   5.186E-01
    6.300   5.415E-01
    6.400   5.653E-01
    6.500   5.900E-01
    6.600   6.156E-01
    6.700   6.423E-01
    6.800   6.700E-01
    6.900   6.988E-01
    7.000   7.287E-01
    7.100   7.597E-01
    7.200   7.920E-01
    7.300   8.255E-01
    7.400   8.603E-01
    7.500   8.965E-01
    7.600   9.340E-01
    7.700   9.730E-01
    7.800   1.014E+00
    7.900   1.056E+00
    8.000   1.099E+00
    8.100   1.145E+00
    8.200   1.192E+00
    8.300   1.241E+00
    8.400   1.291E+00
    8.500   1.344E+00
    8.600   1.399E+00
    8.700   1.456E+00
    8.800   1.515E+00
    8.900   1.576E+00
    9.000   1.640E+00
    9.100   1.706E+00
    9.200   1.774E+00
    9.300   1.846E+00
    9.400   1.920E+00
    9.500   1.997E+00
    9.600   2.077E+00
    9.700   2.160E+00
    9.800   2.246E+00
    9.900   2.335E+00
   10.000   2.428E+00
   10.100   2.525E+00
   10.200   2.625E+00
   10.300   2.729E+00
   10.400   2.838E+00
   10.500   2.950E+00
   10.600   3.067E+00
   10.700   3.188E+00
   10.800   3.313E+00
   10.900   3.444E+00
   11.000   3.579E+00
   11.100   3.719E+00
   11.200   3.864E+00
   11.300   4.014E+00
   11.400   4.169E+00
   11.500   4.329E+00
   11.600   4.495E+00
   11.700   4.666E+00
   11.800   4.843E+00
   11.900   5.024E+00
   12.000   5.210E+00
   12.100   5.402E+00
   12.200   5.598E+00
   12.300   5.799E+00
   12.400   6.004E+00
   12.500   6.214E+00
   12.600   6.426E+00
   12.700   6.642E+00
   12.800   6.861E+00
   12.900   7.082E+00
   13.000   7.305E+00
   13.100   7.528E+00
   13.200   7.752E+00
   13.300   7.975E+00
   13.400   8.196E+00
   13.500   8.416E+00
   13.600   8.633E+00
   13.700   8.846E+00
   13.800   9.054E+00
   13.900   9.257E+00
   14.000   9.454E+00
   14.100   9.643E+00
   14.200   9.825E+00
   14.300   9.998E+00
   14.400   1.016E+01
   14.500   1.032E+01
   14.600   1.046E+01
   14.700   1.059E+01
   14.800   1.071E+01
   14.900   1.082E+01
   15.000   1.091E+01
   15.100   1.100E+01
   15.200   1.107E+01
   15.300   1.112E+01
   15.400   1.116E+01
   15.500   1.119E+01
   15.600   1.120E+01
   15.700   1.120E+01
   15.800   1.118E+01
   15.900   1.115E+01
   16.000   1.111E+01
   16.100   1.105E+01
   16.200   1.097E+01
   16.300   1.088E+01
   16.400   1.078E+01
   16.500   1.067E+01
   16.600   1.054E+01
   16.700   1.041E+01
   16.800   1.026E+01
   16.900   1.010E+01
   17.000   9.936E+00
   17.100   9.763E+00
   17.200   9.584E+00
   17.300   9.399E+00
   17.400   9.209E+00
   17.500   9.015E+00
   17.600   8.819E+00
   17.700   8.621E+00
   17.800   8.422E+00
   17.900   8.223E+00
   18.000   8.025E+00
   18.100   7.827E+00
   18.200   7.632E+00
   18.300   7.438E+00
   18.400   7.248E+00
   18.500   7.060E+00
   18.600   6.877E+00
   18.700   6.696E+00
   18.800   6.520E+00
   18.900   6.348E+00
   19.000   6.180E+00
   19.100   6.017E+00
   19.200   5.858E+00
   19.300   5.704E+00
   19.400   5.554E+00
   19.500   5.408E+00
   19.600   5.267E+00
   19.700   5.130E+00
   19.800   4.998E+00
   19.900   4.870E+00
   20.000   4.746E+00
   20.100   4.625E+00
   20.200   4.509E+00
   20.300   4.397E+00
   20.400   4.288E+00
   20.500   4.183E+00
   20.600   4.082E+00
   20.700   3.983E+00
   20.800   3.888E+00
   20.900   3.796E+00
   21.000   3.708E+00
   21.100   3.622E+00
   21.200   3.539E+00
   21.300   3.458E+00
   21.400   3.380E+00
   21.500   3.305E+00
   21.600   3.232E+00
   21.700   3.162E+00
   21.800   3.093E+00
   21.900   3.027E+00
   22.000   2.963E+00
   22.100   2.901E+00
   22.200   2.841E+00
   22.300   2.783E+00
   22.400   2.726E+00
   22.500   2.671E+00
   22.600   2.618E+00
   22.700   2.567E+00
   22.800   2.517E+00
   22.900   2.468E+00
   23.000   2.421E+00
   23.100   2.375E+00
   23.200   2.331E+00
   23.300   2.288E+00
   23.400   2.246E+00
   23.500   2.205E+00
   23.600   2.165E+00
   23.700   2.127E+00
   23.800   2.089E+00
   23.900   2.053E+00
   24.000   2.017E+00
   24.100   1.983E+00
   24.200   1.949E+00
   24.300   1.916E+00
   24.400   1.884E+00
   24.500   1.853E+00
   24.600   1.823E+00
   24.700   1.793E+00
   24.800   1.765E+00
   24.900   1.737E+00
   25.000   1.709E+00
   25.100   1.683E+00
   25.200   1.657E+00
   25.300   1.631E+00
   25.400   1.606E+00
   25.500   1.582E+00
   25.600   1.559E+00
   25.700   1.535E+00
   25.800   1.513E+00
   25.900   1.491E+00
   26.000   1.469E+00
   26.100   1.448E+00
   26.200   1.428E+00
   26.300   1.408E+00
   26.400   1.388E+00
   26.500   1.369E+00
   26.600   1.350E+00
   26.700   1.332E+00
   26.800   1.314E+00
   26.900   1.296E+00
   27.000   1.279E+00
   27.100   1.262E+00
   27.200   1.245E+00
   27.300   1.229E+00
   27.400   1.213E+00
   27.500   1.198E+00
   27.600   1.183E+00
   27.700   1.168E+00
   27.800   1.153E+00
   27.900   1.139E+00
   28.000   1.125E+00
   28.100   1.111E+00
   28.200   1.097E+00
   28.300   1.084E+00
   28.400   1.071E+00
   28.500   1.058E+00
   28.600   1.046E+00
   28.700   1.034E+00
   28.800   1.022E+00
   28.900   1.010E+00
   29.000   9.983E-01
   29.100   9.869E-01
   29.200   9.757E-01
   29.300   9.648E-01
   29.400   9.540E-01
   29.500   9.434E-01
   29.600   9.330E-01
   29.700   9.228E-01
   29.800   9.128E-01
   29.900   9.029E-01
   30.000   8.932E-01
 
 Z=  44 A= 104  D1M-QRPA
   E[MeV]   fQRPA[mb/MeV]
    0.100   1.522E-04
    0.200   6.073E-04
    0.300   1.360E-03
    0.400   2.403E-03
    0.500   3.726E-03
    0.600   5.316E-03
    0.700   7.158E-03
    0.800   9.238E-03
    0.900   1.154E-02
    1.000   1.405E-02
    1.100   1.674E-02
    1.200   1.962E-02
    1.300   2.265E-02
    1.400   2.584E-02
    1.500   2.918E-02
    1.600   3.265E-02
    1.700   3.625E-02
    1.800   3.997E-02
    1.900   4.383E-02
    2.000   4.781E-02
    2.100   5.192E-02
    2.200   5.616E-02
    2.300   6.053E-02
    2.400   6.505E-02
    2.500   6.972E-02
    2.600   7.454E-02
    2.700   7.952E-02
    2.800   8.468E-02
    2.900   9.002E-02
    3.000   9.555E-02
    3.100   1.013E-01
    3.200   1.072E-01
    3.300   1.134E-01
    3.400   1.198E-01
    3.500   1.264E-01
    3.600   1.333E-01
    3.700   1.405E-01
    3.800   1.479E-01
    3.900   1.556E-01
    4.000   1.637E-01
    4.100   1.720E-01
    4.200   1.806E-01
    4.300   1.896E-01
    4.400   1.990E-01
    4.500   2.087E-01
    4.600   2.188E-01
    4.700   2.293E-01
    4.800   2.402E-01
    4.900   2.515E-01
    5.000   2.633E-01
    5.100   2.755E-01
    5.200   2.882E-01
    5.300   3.015E-01
    5.400   3.152E-01
    5.500   3.294E-01
    5.600   3.443E-01
    5.700   3.597E-01
    5.800   3.757E-01
    5.900   3.923E-01
    6.000   4.096E-01
    6.100   4.276E-01
    6.200   4.463E-01
    6.300   4.657E-01
    6.400   4.859E-01
    6.500   5.069E-01
    6.600   5.287E-01
    6.700   5.514E-01
    6.800   5.749E-01
    6.900   5.994E-01
    7.000   6.249E-01
    7.100   6.514E-01
    7.200   6.789E-01
    7.300   7.075E-01
    7.400   7.373E-01
    7.500   7.682E-01
    7.600   8.003E-01
    7.700   8.336E-01
    7.800   8.683E-01
    7.900   9.043E-01
    8.000   9.417E-01
    8.100   9.805E-01
    8.200   1.021E+00
    8.300   1.063E+00
    8.400   1.106E+00
    8.500   1.152E+00
    8.600   1.199E+00
    8.700   1.247E+00
    8.800   1.298E+00
    8.900   1.351E+00
    9.000   1.405E+00
    9.100   1.462E+00
    9.200   1.521E+00
    9.300   1.582E+00
    9.400   1.646E+00
    9.500   1.712E+00
    9.600   1.781E+00
    9.700   1.853E+00
    9.800   1.927E+00
    9.900   2.004E+00
   10.000   2.085E+00
   10.100   2.169E+00
   10.200   2.256E+00
   10.300   2.346E+00
   10.400   2.440E+00
   10.500   2.538E+00
   10.600   2.640E+00
   10.700   2.746E+00
   10.800   2.856E+00
   10.900   2.971E+00
   11.000   3.090E+00
   11.100   3.214E+00
   11.200   3.342E+00
   11.300   3.476E+00
   11.400   3.615E+00
   11.500   3.759E+00
   11.600   3.908E+00
   11.700   4.063E+00
   11.800   4.223E+00
   11.900   4.388E+00
   12.000   4.559E+00
   12.100   4.736E+00
   12.200   4.918E+00
   12.300   5.105E+00
   12.400   5.297E+00
   12.500   5.494E+00
   12.600   5.696E+00
   12.700   5.902E+00
   12.800   6.113E+00
   12.900   6.326E+00
   13.000   6.543E+00
   13.100   6.763E+00
   13.200   6.984E+00
   13.300   7.206E+00
   13.400   7.429E+00
   13.500   7.652E+00
   13.600   7.874E+00
   13.700   8.093E+00
   13.800   8.310E+00
   13.900   8.523E+00
   14.000   8.731E+00
   14.100   8.934E+00
   14.200   9.131E+00
   14.300   9.321E+00
   14.400   9.503E+00
   14.500   9.676E+00
   14.600   9.840E+00
   14.700   9.994E+00
   14.800   1.014E+01
   14.900   1.027E+01
   15.000   1.039E+01
   15.100   1.050E+01
   15.200   1.059E+01
   15.300   1.068E+01
   15.400   1.075E+01
   15.500   1.080E+01
   15.600   1.084E+01
   15.700   1.087E+01
   15.800   1.088E+01
   15.900   1.088E+01
   16.000   1.086E+01
   16.100   1.082E+01
   16.200   1.077E+01
   16.300   1.071E+01
   16.400   1.063E+01
   16.500   1.053E+01
   16.600   1.043E+01
   16.700   1.030E+01
   16.800   1.017E+01
   16.900   1.003E+01
   17.000   9.871E+00
   17.100   9.706E+00
   17.200   9.533E+00
   17.300   9.352E+00
   17.400   9.164E+00
   17.500   8.972E+00
   17.600   8.775E+00
   17.700   8.575E+00
   17.800   8.373E+00
   17.900   8.170E+00
   18.000   7.966E+00
   18.100   7.764E+00
   18.200   7.562E+00
   18.300   7.362E+00
   18.400   7.165E+00
   18.500   6.971E+00
   18.600   6.780E+00
   18.700   6.593E+00
   18.800   6.410E+00
   18.900   6.232E+00
   19.000   6.058E+00
   19.100   5.889E+00
   19.200   5.724E+00
   19.300   5.564E+00
   19.400   5.410E+00
   19.500   5.259E+00
   19.600   5.114E+00
   19.700   4.973E+00
   19.800   4.837E+00
   19.900   4.706E+00
   20.000   4.579E+00
   20.100   4.456E+00
   20.200   4.338E+00
   20.300   4.223E+00
   20.400   4.113E+00
   20.500   4.007E+00
   20.600   3.904E+00
   20.700   3.804E+00
   20.800   3.709E+00
   20.900   3.616E+00
   21.000   3.527E+00
   21.100   3.441E+00
   21.200   3.358E+00
   21.300   3.277E+00
   21.400   3.200E+00
   21.500   3.125E+00
   21.600   3.052E+00
   21.700   2.982E+00
   21.800   2.915E+00
   21.900   2.849E+00
   22.000   2.786E+00
   22.100   2.725E+00
   22.200   2.666E+00
   22.300   2.609E+00
   22.400   2.553E+00
   22.500   2.500E+00
   22.600   2.448E+00
   22.700   2.397E+00
   22.800   2.349E+00
   22.900   2.301E+00
   23.000   2.256E+00
   23.100   2.211E+00
   23.200   2.168E+00
   23.300   2.126E+00
   23.400   2.086E+00
   23.500   2.046E+00
   23.600   2.008E+00
   23.700   1.971E+00
   23.800   1.935E+00
   23.900   1.900E+00
   24.000   1.865E+00
   24.100   1.832E+00
   24.200   1.800E+00
   24.300   1.769E+00
   24.400   1.738E+00
   24.500   1.709E+00
   24.600   1.680E+00
   24.700   1.652E+00
   24.800   1.624E+00
   24.900   1.597E+00
   25.000   1.571E+00
   25.100   1.546E+00
   25.200   1.521E+00
   25.300   1.497E+00
   25.400   1.474E+00
   25.500   1.451E+00
   25.600   1.429E+00
   25.700   1.407E+00
   25.800   1.385E+00
   25.900   1.365E+00
   26.000   1.344E+00
   26.100   1.325E+00
   26.200   1.305E+00
   26.300   1.286E+00
   26.400   1.268E+00
   26.500   1.250E+00
   26.600   1.232E+00
   26.700   1.215E+00
   26.800   1.198E+00
   26.900   1.182E+00
   27.000   1.165E+00
   27.100   1.150E+00
   27.200   1.134E+00
   27.300   1.119E+00
   27.400   1.104E+00
   27.500   1.090E+00
   27.600   1.076E+00
   27.700   1.062E+00
   27.800   1.048E+00
   27.900   1.035E+00
   28.000   1.022E+00
   28.100   1.009E+00
   28.200   9.963E-01
   28.300   9.840E-01
   28.400   9.719E-01
   28.500   9.601E-01
   28.600   9.485E-01
   28.700   9.371E-01
   28.800   9.260E-01
   28.900   9.150E-01
   29.000   9.043E-01
   29.100   8.937E-01
   29.200   8.834E-01
   29.300   8.732E-01
   29.400   8.633E-01
   29.500   8.535E-01
   29.600   8.439E-01
   29.700   8.345E-01
   29.800   8.252E-01
   29.900   8.161E-01
   30.000   8.071E-01
 
 Z=  44 A= 105  D1M-QRPA-Inter
 E[MeV]  fQRPA[mb/MeV]
    0.100   3.072E-04
    0.200   1.226E-03
    0.300   2.748E-03
    0.400   4.861E-03
    0.500   7.545E-03
    0.600   1.078E-02
    0.700   1.453E-02
    0.800   1.878E-02
    0.900   2.348E-02
    1.000   2.859E-02
    1.100   3.409E-02
    1.200   3.992E-02
    1.300   4.605E-02
    1.400   5.243E-02
    1.500   5.901E-02
    1.600   6.577E-02
    1.700   7.265E-02
    1.800   7.963E-02
    1.900   8.667E-02
    2.000   9.373E-02
    2.100   1.008E-01
    2.200   1.078E-01
    2.300   1.149E-01
    2.400   1.218E-01
    2.500   1.287E-01
    2.600   1.356E-01
    2.700   1.424E-01
    2.800   1.492E-01
    2.900   1.559E-01
    3.000   1.626E-01
    3.100   1.693E-01
    3.200   1.760E-01
    3.300   1.827E-01
    3.400   1.895E-01
    3.500   1.964E-01
    3.600   2.033E-01
    3.700   2.104E-01
    3.800   2.176E-01
    3.900   2.250E-01
    4.000   2.326E-01
    4.100   2.404E-01
    4.200   2.485E-01
    4.300   2.568E-01
    4.400   2.654E-01
    4.500   2.743E-01
    4.600   2.836E-01
    4.700   2.932E-01
    4.800   3.033E-01
    4.900   3.137E-01
    5.000   3.246E-01
    5.100   3.360E-01
    5.200   3.478E-01
    5.300   3.602E-01
    5.400   3.731E-01
    5.500   3.865E-01
    5.600   4.006E-01
    5.700   4.152E-01
    5.800   4.306E-01
    5.900   4.465E-01
    6.000   4.632E-01
    6.100   4.807E-01
    6.200   4.988E-01
    6.300   5.178E-01
    6.400   5.376E-01
    6.500   5.583E-01
    6.600   5.798E-01
    6.700   6.023E-01
    6.800   6.257E-01
    6.900   6.501E-01
    7.000   6.756E-01
    7.100   7.021E-01
    7.200   7.297E-01
    7.300   7.585E-01
    7.400   7.885E-01
    7.500   8.197E-01
    7.600   8.522E-01
    7.700   8.860E-01
    7.800   9.212E-01
    7.900   9.578E-01
    8.000   9.958E-01
    8.100   1.035E+00
    8.200   1.077E+00
    8.300   1.119E+00
    8.400   1.164E+00
    8.500   1.210E+00
    8.600   1.258E+00
    8.700   1.308E+00
    8.800   1.360E+00
    8.900   1.414E+00
    9.000   1.470E+00
    9.100   1.528E+00
    9.200   1.589E+00
    9.300   1.652E+00
    9.400   1.718E+00
    9.500   1.786E+00
    9.600   1.857E+00
    9.700   1.931E+00
    9.800   2.007E+00
    9.900   2.087E+00
   10.000   2.171E+00
   10.100   2.257E+00
   10.200   2.348E+00
   10.300   2.442E+00
   10.400   2.539E+00
   10.500   2.641E+00
   10.600   2.748E+00
   10.700   2.858E+00
   10.800   2.974E+00
   10.900   3.094E+00
   11.000   3.219E+00
   11.100   3.349E+00
   11.200   3.484E+00
   11.300   3.625E+00
   11.400   3.772E+00
   11.500   3.924E+00
   11.600   4.083E+00
   11.700   4.247E+00
   11.800   4.418E+00
   11.900   4.595E+00
   12.000   4.779E+00
   12.100   4.968E+00
   12.200   5.165E+00
   12.300   5.367E+00
   12.400   5.576E+00
   12.500   5.791E+00
   12.600   6.012E+00
   12.700   6.238E+00
   12.800   6.470E+00
   12.900   6.706E+00
   13.000   6.947E+00
   13.100   7.191E+00
   13.200   7.438E+00
   13.300   7.688E+00
   13.400   7.938E+00
   13.500   8.188E+00
   13.600   8.438E+00
   13.700   8.685E+00
   13.800   8.930E+00
   13.900   9.169E+00
   14.000   9.403E+00
   14.100   9.631E+00
   14.200   9.850E+00
   14.300   1.006E+01
   14.400   1.026E+01
   14.500   1.045E+01
   14.600   1.062E+01
   14.700   1.079E+01
   14.800   1.094E+01
   14.900   1.107E+01
   15.000   1.119E+01
   15.100   1.130E+01
   15.200   1.139E+01
   15.300   1.147E+01
   15.400   1.153E+01
   15.500   1.158E+01
   15.600   1.161E+01
   15.700   1.162E+01
   15.800   1.162E+01
   15.900   1.161E+01
   16.000   1.158E+01
   16.100   1.153E+01
   16.200   1.147E+01
   16.300   1.140E+01
   16.400   1.131E+01
   16.500   1.120E+01
   16.600   1.109E+01
   16.700   1.096E+01
   16.800   1.081E+01
   16.900   1.066E+01
   17.000   1.049E+01
   17.100   1.032E+01
   17.200   1.014E+01
   17.300   9.945E+00
   17.400   9.748E+00
   17.500   9.545E+00
   17.600   9.338E+00
   17.700   9.127E+00
   17.800   8.913E+00
   17.900   8.698E+00
   18.000   8.482E+00
   18.100   8.267E+00
   18.200   8.052E+00
   18.300   7.838E+00
   18.400   7.627E+00
   18.500   7.418E+00
   18.600   7.212E+00
   18.700   7.010E+00
   18.800   6.811E+00
   18.900   6.617E+00
   19.000   6.427E+00
   19.100   6.242E+00
   19.200   6.062E+00
   19.300   5.887E+00
   19.400   5.717E+00
   19.500   5.552E+00
   19.600   5.392E+00
   19.700   5.237E+00
   19.800   5.088E+00
   19.900   4.943E+00
   20.000   4.803E+00
   20.100   4.668E+00
   20.200   4.538E+00
   20.300   4.413E+00
   20.400   4.292E+00
   20.500   4.175E+00
   20.600   4.063E+00
   20.700   3.954E+00
   20.800   3.850E+00
   20.900   3.749E+00
   21.000   3.652E+00
   21.100   3.559E+00
   21.200   3.469E+00
   21.300   3.382E+00
   21.400   3.298E+00
   21.500   3.217E+00
   21.600   3.139E+00
   21.700   3.064E+00
   21.800   2.992E+00
   21.900   2.922E+00
   22.000   2.854E+00
   22.100   2.789E+00
   22.200   2.726E+00
   22.300   2.665E+00
   22.400   2.607E+00
   22.500   2.550E+00
   22.600   2.495E+00
   22.700   2.442E+00
   22.800   2.390E+00
   22.900   2.340E+00
   23.000   2.292E+00
   23.100   2.245E+00
   23.200   2.200E+00
   23.300   2.156E+00
   23.400   2.114E+00
   23.500   2.073E+00
   23.600   2.033E+00
   23.700   1.994E+00
   23.800   1.956E+00
   23.900   1.920E+00
   24.000   1.885E+00
   24.100   1.850E+00
   24.200   1.817E+00
   24.300   1.784E+00
   24.400   1.753E+00
   24.500   1.722E+00
   24.600   1.692E+00
   24.700   1.663E+00
   24.800   1.635E+00
   24.900   1.607E+00
   25.000   1.580E+00
   25.100   1.554E+00
   25.200   1.529E+00
   25.300   1.504E+00
   25.400   1.480E+00
   25.500   1.457E+00
   25.600   1.434E+00
   25.700   1.411E+00
   25.800   1.390E+00
   25.900   1.368E+00
   26.000   1.348E+00
   26.100   1.327E+00
   26.200   1.308E+00
   26.300   1.288E+00
   26.400   1.270E+00
   26.500   1.251E+00
   26.600   1.233E+00
   26.700   1.216E+00
   26.800   1.198E+00
   26.900   1.182E+00
   27.000   1.165E+00
   27.100   1.149E+00
   27.200   1.134E+00
   27.300   1.118E+00
   27.400   1.103E+00
   27.500   1.088E+00
   27.600   1.074E+00
   27.700   1.060E+00
   27.800   1.046E+00
   27.900   1.033E+00
   28.000   1.020E+00
   28.100   1.007E+00
   28.200   9.939E-01
   28.300   9.814E-01
   28.400   9.693E-01
   28.500   9.573E-01
   28.600   9.456E-01
   28.700   9.341E-01
   28.800   9.229E-01
   28.900   9.118E-01
   29.000   9.010E-01
   29.100   8.904E-01
   29.200   8.800E-01
   29.300   8.697E-01
   29.400   8.597E-01
   29.500   8.499E-01
   29.600   8.402E-01
   29.700   8.307E-01
   29.800   8.214E-01
   29.900   8.122E-01
   30.000   8.032E-01
 
 Z=  44 A= 106  D1M-QRPA
   E[MeV]   fQRPA[mb/MeV]
    0.100   6.184E-04
    0.200   2.470E-03
    0.300   5.540E-03
    0.400   9.809E-03
    0.500   1.524E-02
    0.600   2.180E-02
    0.700   2.944E-02
    0.800   3.808E-02
    0.900   4.766E-02
    1.000   5.808E-02
    1.100   6.925E-02
    1.200   8.106E-02
    1.300   9.339E-02
    1.400   1.061E-01
    1.500   1.191E-01
    1.600   1.322E-01
    1.700   1.453E-01
    1.800   1.583E-01
    1.900   1.710E-01
    2.000   1.833E-01
    2.100   1.953E-01
    2.200   2.066E-01
    2.300   2.175E-01
    2.400   2.277E-01
    2.500   2.372E-01
    2.600   2.462E-01
    2.700   2.545E-01
    2.800   2.622E-01
    2.900   2.694E-01
    3.000   2.761E-01
    3.100   2.823E-01
    3.200   2.882E-01
    3.300   2.938E-01
    3.400   2.991E-01
    3.500   3.043E-01
    3.600   3.094E-01
    3.700   3.144E-01
    3.800   3.194E-01
    3.900   3.246E-01
    4.000   3.298E-01
    4.100   3.353E-01
    4.200   3.409E-01
    4.300   3.469E-01
    4.400   3.531E-01
    4.500   3.597E-01
    4.600   3.667E-01
    4.700   3.742E-01
    4.800   3.820E-01
    4.900   3.904E-01
    5.000   3.993E-01
    5.100   4.087E-01
    5.200   4.187E-01
    5.300   4.293E-01
    5.400   4.406E-01
    5.500   4.525E-01
    5.600   4.650E-01
    5.700   4.783E-01
    5.800   4.923E-01
    5.900   5.071E-01
    6.000   5.227E-01
    6.100   5.391E-01
    6.200   5.563E-01
    6.300   5.745E-01
    6.400   5.935E-01
    6.500   6.135E-01
    6.600   6.344E-01
    6.700   6.564E-01
    6.800   6.794E-01
    6.900   7.035E-01
    7.000   7.286E-01
    7.100   7.550E-01
    7.200   7.825E-01
    7.300   8.113E-01
    7.400   8.413E-01
    7.500   8.727E-01
    7.600   9.054E-01
    7.700   9.395E-01
    7.800   9.751E-01
    7.900   1.012E+00
    8.000   1.051E+00
    8.100   1.091E+00
    8.200   1.133E+00
    8.300   1.176E+00
    8.400   1.222E+00
    8.500   1.269E+00
    8.600   1.318E+00
    8.700   1.369E+00
    8.800   1.422E+00
    8.900   1.477E+00
    9.000   1.534E+00
    9.100   1.594E+00
    9.200   1.656E+00
    9.300   1.721E+00
    9.400   1.788E+00
    9.500   1.858E+00
    9.600   1.931E+00
    9.700   2.007E+00
    9.800   2.086E+00
    9.900   2.169E+00
   10.000   2.255E+00
   10.100   2.344E+00
   10.200   2.438E+00
   10.300   2.535E+00
   10.400   2.637E+00
   10.500   2.743E+00
   10.600   2.853E+00
   10.700   2.969E+00
   10.800   3.089E+00
   10.900   3.214E+00
   11.000   3.345E+00
   11.100   3.482E+00
   11.200   3.624E+00
   11.300   3.772E+00
   11.400   3.927E+00
   11.500   4.088E+00
   11.600   4.256E+00
   11.700   4.430E+00
   11.800   4.612E+00
   11.900   4.801E+00
   12.000   4.997E+00
   12.100   5.201E+00
   12.200   5.412E+00
   12.300   5.631E+00
   12.400   5.857E+00
   12.500   6.090E+00
   12.600   6.331E+00
   12.700   6.579E+00
   12.800   6.833E+00
   12.900   7.093E+00
   13.000   7.359E+00
   13.100   7.630E+00
   13.200   7.904E+00
   13.300   8.182E+00
   13.400   8.462E+00
   13.500   8.742E+00
   13.600   9.022E+00
   13.700   9.300E+00
   13.800   9.574E+00
   13.900   9.842E+00
   14.000   1.010E+01
   14.100   1.036E+01
   14.200   1.060E+01
   14.300   1.083E+01
   14.400   1.105E+01
   14.500   1.125E+01
   14.600   1.144E+01
   14.700   1.162E+01
   14.800   1.177E+01
   14.900   1.191E+01
   15.000   1.203E+01
   15.100   1.214E+01
   15.200   1.222E+01
   15.300   1.229E+01
   15.400   1.234E+01
   15.500   1.238E+01
   15.600   1.240E+01
   15.700   1.240E+01
   15.800   1.239E+01
   15.900   1.236E+01
   16.000   1.232E+01
   16.100   1.226E+01
   16.200   1.219E+01
   16.300   1.210E+01
   16.400   1.200E+01
   16.500   1.189E+01
   16.600   1.176E+01
   16.700   1.162E+01
   16.800   1.147E+01
   16.900   1.130E+01
   17.000   1.113E+01
   17.100   1.095E+01
   17.200   1.075E+01
   17.300   1.055E+01
   17.400   1.034E+01
   17.500   1.013E+01
   17.600   9.914E+00
   17.700   9.692E+00
   17.800   9.467E+00
   17.900   9.239E+00
   18.000   9.011E+00
   18.100   8.782E+00
   18.200   8.553E+00
   18.300   8.326E+00
   18.400   8.099E+00
   18.500   7.875E+00
   18.600   7.654E+00
   18.700   7.435E+00
   18.800   7.221E+00
   18.900   7.010E+00
   19.000   6.804E+00
   19.100   6.602E+00
   19.200   6.406E+00
   19.300   6.214E+00
   19.400   6.028E+00
   19.500   5.848E+00
   19.600   5.672E+00
   19.700   5.503E+00
   19.800   5.339E+00
   19.900   5.180E+00
   20.000   5.027E+00
   20.100   4.880E+00
   20.200   4.737E+00
   20.300   4.600E+00
   20.400   4.468E+00
   20.500   4.341E+00
   20.600   4.219E+00
   20.700   4.101E+00
   20.800   3.987E+00
   20.900   3.878E+00
   21.000   3.773E+00
   21.100   3.672E+00
   21.200   3.575E+00
   21.300   3.482E+00
   21.400   3.392E+00
   21.500   3.305E+00
   21.600   3.222E+00
   21.700   3.141E+00
   21.800   3.064E+00
   21.900   2.989E+00
   22.000   2.918E+00
   22.100   2.848E+00
   22.200   2.781E+00
   22.300   2.717E+00
   22.400   2.655E+00
   22.500   2.595E+00
   22.600   2.537E+00
   22.700   2.481E+00
   22.800   2.427E+00
   22.900   2.375E+00
   23.000   2.324E+00
   23.100   2.275E+00
   23.200   2.228E+00
   23.300   2.182E+00
   23.400   2.138E+00
   23.500   2.095E+00
   23.600   2.053E+00
   23.700   2.013E+00
   23.800   1.974E+00
   23.900   1.936E+00
   24.000   1.899E+00
   24.100   1.864E+00
   24.200   1.829E+00
   24.300   1.796E+00
   24.400   1.763E+00
   24.500   1.731E+00
   24.600   1.701E+00
   24.700   1.671E+00
   24.800   1.642E+00
   24.900   1.613E+00
   25.000   1.586E+00
   25.100   1.559E+00
   25.200   1.533E+00
   25.300   1.508E+00
   25.400   1.483E+00
   25.500   1.459E+00
   25.600   1.436E+00
   25.700   1.413E+00
   25.800   1.391E+00
   25.900   1.369E+00
   26.000   1.348E+00
   26.100   1.327E+00
   26.200   1.307E+00
   26.300   1.288E+00
   26.400   1.268E+00
   26.500   1.250E+00
   26.600   1.231E+00
   26.700   1.214E+00
   26.800   1.196E+00
   26.900   1.179E+00
   27.000   1.163E+00
   27.100   1.146E+00
   27.200   1.130E+00
   27.300   1.115E+00
   27.400   1.100E+00
   27.500   1.085E+00
   27.600   1.070E+00
   27.700   1.056E+00
   27.800   1.042E+00
   27.900   1.028E+00
   28.000   1.015E+00
   28.100   1.002E+00
   28.200   9.892E-01
   28.300   9.767E-01
   28.400   9.644E-01
   28.500   9.524E-01
   28.600   9.406E-01
   28.700   9.290E-01
   28.800   9.177E-01
   28.900   9.066E-01
   29.000   8.957E-01
   29.100   8.850E-01
   29.200   8.746E-01
   29.300   8.643E-01
   29.400   8.542E-01
   29.500   8.443E-01
   29.600   8.346E-01
   29.700   8.251E-01
   29.800   8.157E-01
   29.900   8.065E-01
   30.000   7.975E-01
 
 Z=  44 A= 107  D1M-QRPA-Inter
 E[MeV]  fQRPA[mb/MeV]
    0.100   3.768E-04
    0.200   1.506E-03
    0.300   3.385E-03
    0.400   6.007E-03
    0.500   9.364E-03
    0.600   1.344E-02
    0.700   1.823E-02
    0.800   2.370E-02
    0.900   2.984E-02
    1.000   3.659E-02
    1.100   4.394E-02
    1.200   5.182E-02
    1.300   6.018E-02
    1.400   6.897E-02
    1.500   7.810E-02
    1.600   8.751E-02
    1.700   9.710E-02
    1.800   1.068E-01
    1.900   1.165E-01
    2.000   1.261E-01
    2.100   1.356E-01
    2.200   1.449E-01
    2.300   1.539E-01
    2.400   1.625E-01
    2.500   1.708E-01
    2.600   1.786E-01
    2.700   1.861E-01
    2.800   1.931E-01
    2.900   1.997E-01
    3.000   2.060E-01
    3.100   2.119E-01
    3.200   2.175E-01
    3.300   2.229E-01
    3.400   2.281E-01
    3.500   2.331E-01
    3.600   2.381E-01
    3.700   2.431E-01
    3.800   2.481E-01
    3.900   2.531E-01
    4.000   2.583E-01
    4.100   2.636E-01
    4.200   2.692E-01
    4.300   2.750E-01
    4.400   2.811E-01
    4.500   2.875E-01
    4.600   2.943E-01
    4.700   3.014E-01
    4.800   3.089E-01
    4.900   3.169E-01
    5.000   3.253E-01
    5.100   3.342E-01
    5.200   3.436E-01
    5.300   3.536E-01
    5.400   3.641E-01
    5.500   3.751E-01
    5.600   3.868E-01
    5.700   3.991E-01
    5.800   4.121E-01
    5.900   4.258E-01
    6.000   4.401E-01
    6.100   4.552E-01
    6.200   4.711E-01
    6.300   4.877E-01
    6.400   5.052E-01
    6.500   5.235E-01
    6.600   5.427E-01
    6.700   5.627E-01
    6.800   5.838E-01
    6.900   6.057E-01
    7.000   6.287E-01
    7.100   6.527E-01
    7.200   6.778E-01
    7.300   7.040E-01
    7.400   7.313E-01
    7.500   7.598E-01
    7.600   7.896E-01
    7.700   8.205E-01
    7.800   8.528E-01
    7.900   8.865E-01
    8.000   9.215E-01
    8.100   9.579E-01
    8.200   9.958E-01
    8.300   1.035E+00
    8.400   1.076E+00
    8.500   1.119E+00
    8.600   1.163E+00
    8.700   1.209E+00
    8.800   1.257E+00
    8.900   1.306E+00
    9.000   1.358E+00
    9.100   1.411E+00
    9.200   1.467E+00
    9.300   1.525E+00
    9.400   1.585E+00
    9.500   1.647E+00
    9.600   1.712E+00
    9.700   1.779E+00
    9.800   1.850E+00
    9.900   1.923E+00
   10.000   1.999E+00
   10.100   2.078E+00
   10.200   2.161E+00
   10.300   2.247E+00
   10.400   2.337E+00
   10.500   2.430E+00
   10.600   2.528E+00
   10.700   2.630E+00
   10.800   2.737E+00
   10.900   2.848E+00
   11.000   2.964E+00
   11.100   3.085E+00
   11.200   3.211E+00
   11.300   3.343E+00
   11.400   3.481E+00
   11.500   3.625E+00
   11.600   3.776E+00
   11.700   3.932E+00
   11.800   4.096E+00
   11.900   4.267E+00
   12.000   4.445E+00
   12.100   4.631E+00
   12.200   4.824E+00
   12.300   5.025E+00
   12.400   5.235E+00
   12.500   5.452E+00
   12.600   5.677E+00
   12.700   5.910E+00
   12.800   6.151E+00
   12.900   6.400E+00
   13.000   6.656E+00
   13.100   6.919E+00
   13.200   7.189E+00
   13.300   7.464E+00
   13.400   7.745E+00
   13.500   8.029E+00
   13.600   8.317E+00
   13.700   8.606E+00
   13.800   8.895E+00
   13.900   9.183E+00
   14.000   9.468E+00
   14.100   9.748E+00
   14.200   1.002E+01
   14.300   1.029E+01
   14.400   1.054E+01
   14.500   1.078E+01
   14.600   1.101E+01
   14.700   1.122E+01
   14.800   1.142E+01
   14.900   1.159E+01
   15.000   1.175E+01
   15.100   1.189E+01
   15.200   1.201E+01
   15.300   1.212E+01
   15.400   1.220E+01
   15.500   1.226E+01
   15.600   1.231E+01
   15.700   1.234E+01
   15.800   1.236E+01
   15.900   1.236E+01
   16.000   1.234E+01
   16.100   1.232E+01
   16.200   1.228E+01
   16.300   1.222E+01
   16.400   1.216E+01
   16.500   1.208E+01
   16.600   1.199E+01
   16.700   1.189E+01
   16.800   1.178E+01
   16.900   1.165E+01
   17.000   1.152E+01
   17.100   1.137E+01
   17.200   1.121E+01
   17.300   1.105E+01
   17.400   1.087E+01
   17.500   1.069E+01
   17.600   1.049E+01
   17.700   1.029E+01
   17.800   1.009E+01
   17.900   9.877E+00
   18.000   9.662E+00
   18.100   9.443E+00
   18.200   9.221E+00
   18.300   8.997E+00
   18.400   8.772E+00
   18.500   8.547E+00
   18.600   8.322E+00
   18.700   8.098E+00
   18.800   7.875E+00
   18.900   7.653E+00
   19.000   7.435E+00
   19.100   7.219E+00
   19.200   7.006E+00
   19.300   6.796E+00
   19.400   6.591E+00
   19.500   6.389E+00
   19.600   6.193E+00
   19.700   6.001E+00
   19.800   5.814E+00
   19.900   5.632E+00
   20.000   5.456E+00
   20.100   5.285E+00
   20.200   5.120E+00
   20.300   4.961E+00
   20.400   4.807E+00
   20.500   4.658E+00
   20.600   4.515E+00
   20.700   4.378E+00
   20.800   4.245E+00
   20.900   4.118E+00
   21.000   3.996E+00
   21.100   3.879E+00
   21.200   3.766E+00
   21.300   3.658E+00
   21.400   3.554E+00
   21.500   3.454E+00
   21.600   3.359E+00
   21.700   3.267E+00
   21.800   3.179E+00
   21.900   3.094E+00
   22.000   3.012E+00
   22.100   2.934E+00
   22.200   2.859E+00
   22.300   2.787E+00
   22.400   2.717E+00
   22.500   2.650E+00
   22.600   2.586E+00
   22.700   2.524E+00
   22.800   2.464E+00
   22.900   2.406E+00
   23.000   2.351E+00
   23.100   2.297E+00
   23.200   2.246E+00
   23.300   2.196E+00
   23.400   2.148E+00
   23.500   2.101E+00
   23.600   2.057E+00
   23.700   2.013E+00
   23.800   1.971E+00
   23.900   1.931E+00
   24.000   1.891E+00
   24.100   1.853E+00
   24.200   1.817E+00
   24.300   1.781E+00
   24.400   1.747E+00
   24.500   1.713E+00
   24.600   1.681E+00
   24.700   1.649E+00
   24.800   1.619E+00
   24.900   1.589E+00
   25.000   1.560E+00
   25.100   1.533E+00
   25.200   1.505E+00
   25.300   1.479E+00
   25.400   1.453E+00
   25.500   1.429E+00
   25.600   1.404E+00
   25.700   1.381E+00
   25.800   1.358E+00
   25.900   1.336E+00
   26.000   1.314E+00
   26.100   1.293E+00
   26.200   1.272E+00
   26.300   1.252E+00
   26.400   1.232E+00
   26.500   1.213E+00
   26.600   1.195E+00
   26.700   1.177E+00
   26.800   1.159E+00
   26.900   1.142E+00
   27.000   1.125E+00
   27.100   1.108E+00
   27.200   1.092E+00
   27.300   1.076E+00
   27.400   1.061E+00
   27.500   1.046E+00
   27.600   1.032E+00
   27.700   1.017E+00
   27.800   1.003E+00
   27.900   9.896E-01
   28.000   9.762E-01
   28.100   9.631E-01
   28.200   9.503E-01
   28.300   9.378E-01
   28.400   9.255E-01
   28.500   9.135E-01
   28.600   9.017E-01
   28.700   8.902E-01
   28.800   8.790E-01
   28.900   8.679E-01
   29.000   8.571E-01
   29.100   8.465E-01
   29.200   8.361E-01
   29.300   8.259E-01
   29.400   8.159E-01
   29.500   8.062E-01
   29.600   7.966E-01
   29.700   7.871E-01
   29.800   7.779E-01
   29.900   7.689E-01
   30.000   7.600E-01
 
 Z=  44 A= 108  D1M-QRPA
   E[MeV]   fQRPA[mb/MeV]
    0.100   2.285E-04
    0.200   9.142E-04
    0.300   2.058E-03
    0.400   3.661E-03
    0.500   5.725E-03
    0.600   8.250E-03
    0.700   1.124E-02
    0.800   1.469E-02
    0.900   1.859E-02
    1.000   2.295E-02
    1.100   2.775E-02
    1.200   3.297E-02
    1.300   3.861E-02
    1.400   4.462E-02
    1.500   5.098E-02
    1.600   5.765E-02
    1.700   6.459E-02
    1.800   7.173E-02
    1.900   7.901E-02
    2.000   8.639E-02
    2.100   9.379E-02
    2.200   1.011E-01
    2.300   1.084E-01
    2.400   1.155E-01
    2.500   1.224E-01
    2.600   1.290E-01
    2.700   1.354E-01
    2.800   1.416E-01
    2.900   1.474E-01
    3.000   1.530E-01
    3.100   1.583E-01
    3.200   1.634E-01
    3.300   1.683E-01
    3.400   1.731E-01
    3.500   1.778E-01
    3.600   1.824E-01
    3.700   1.870E-01
    3.800   1.917E-01
    3.900   1.965E-01
    4.000   2.013E-01
    4.100   2.064E-01
    4.200   2.116E-01
    4.300   2.170E-01
    4.400   2.227E-01
    4.500   2.287E-01
    4.600   2.350E-01
    4.700   2.416E-01
    4.800   2.486E-01
    4.900   2.560E-01
    5.000   2.638E-01
    5.100   2.720E-01
    5.200   2.807E-01
    5.300   2.898E-01
    5.400   2.994E-01
    5.500   3.096E-01
    5.600   3.203E-01
    5.700   3.315E-01
    5.800   3.433E-01
    5.900   3.558E-01
    6.000   3.689E-01
    6.100   3.826E-01
    6.200   3.970E-01
    6.300   4.121E-01
    6.400   4.280E-01
    6.500   4.446E-01
    6.600   4.620E-01
    6.700   4.802E-01
    6.800   4.993E-01
    6.900   5.192E-01
    7.000   5.400E-01
    7.100   5.617E-01
    7.200   5.844E-01
    7.300   6.080E-01
    7.400   6.327E-01
    7.500   6.585E-01
    7.600   6.853E-01
    7.700   7.133E-01
    7.800   7.424E-01
    7.900   7.728E-01
    8.000   8.043E-01
    8.100   8.372E-01
    8.200   8.713E-01
    8.300   9.068E-01
    8.400   9.437E-01
    8.500   9.820E-01
    8.600   1.022E+00
    8.700   1.063E+00
    8.800   1.106E+00
    8.900   1.150E+00
    9.000   1.196E+00
    9.100   1.244E+00
    9.200   1.293E+00
    9.300   1.345E+00
    9.400   1.398E+00
    9.500   1.453E+00
    9.600   1.510E+00
    9.700   1.570E+00
    9.800   1.632E+00
    9.900   1.697E+00
   10.000   1.764E+00
   10.100   1.834E+00
   10.200   1.906E+00
   10.300   1.982E+00
   10.400   2.061E+00
   10.500   2.144E+00
   10.600   2.230E+00
   10.700   2.319E+00
   10.800   2.413E+00
   10.900   2.511E+00
   11.000   2.614E+00
   11.100   2.721E+00
   11.200   2.832E+00
   11.300   2.949E+00
   11.400   3.072E+00
   11.500   3.200E+00
   11.600   3.334E+00
   11.700   3.474E+00
   11.800   3.621E+00
   11.900   3.775E+00
   12.000   3.936E+00
   12.100   4.104E+00
   12.200   4.280E+00
   12.300   4.464E+00
   12.400   4.657E+00
   12.500   4.857E+00
   12.600   5.067E+00
   12.700   5.285E+00
   12.800   5.512E+00
   12.900   5.747E+00
   13.000   5.992E+00
   13.100   6.246E+00
   13.200   6.507E+00
   13.300   6.777E+00
   13.400   7.055E+00
   13.500   7.340E+00
   13.600   7.631E+00
   13.700   7.927E+00
   13.800   8.226E+00
   13.900   8.528E+00
   14.000   8.831E+00
   14.100   9.133E+00
   14.200   9.431E+00
   14.300   9.723E+00
   14.400   1.001E+01
   14.500   1.028E+01
   14.600   1.054E+01
   14.700   1.079E+01
   14.800   1.102E+01
   14.900   1.124E+01
   15.000   1.143E+01
   15.100   1.160E+01
   15.200   1.175E+01
   15.300   1.189E+01
   15.400   1.200E+01
   15.500   1.209E+01
   15.600   1.217E+01
   15.700   1.223E+01
   15.800   1.227E+01
   15.900   1.230E+01
   16.000   1.231E+01
   16.100   1.231E+01
   16.200   1.230E+01
   16.300   1.228E+01
   16.400   1.226E+01
   16.500   1.222E+01
   16.600   1.217E+01
   16.700   1.211E+01
   16.800   1.204E+01
   16.900   1.195E+01
   17.000   1.186E+01
   17.100   1.176E+01
   17.200   1.164E+01
   17.300   1.151E+01
   17.400   1.137E+01
   17.500   1.122E+01
   17.600   1.106E+01
   17.700   1.088E+01
   17.800   1.070E+01
   17.900   1.051E+01
   18.000   1.031E+01
   18.100   1.011E+01
   18.200   9.894E+00
   18.300   9.678E+00
   18.400   9.457E+00
   18.500   9.233E+00
   18.600   9.006E+00
   18.700   8.778E+00
   18.800   8.548E+00
   18.900   8.317E+00
   19.000   8.086E+00
   19.100   7.855E+00
   19.200   7.626E+00
   19.300   7.398E+00
   19.400   7.172E+00
   19.500   6.949E+00
   19.600   6.729E+00
   19.700   6.513E+00
   19.800   6.302E+00
   19.900   6.095E+00
   20.000   5.894E+00
   20.100   5.698E+00
   20.200   5.508E+00
   20.300   5.324E+00
   20.400   5.147E+00
   20.500   4.975E+00
   20.600   4.810E+00
   20.700   4.652E+00
   20.800   4.499E+00
   20.900   4.353E+00
   21.000   4.212E+00
   21.100   4.078E+00
   21.200   3.949E+00
   21.300   3.825E+00
   21.400   3.707E+00
   21.500   3.594E+00
   21.600   3.485E+00
   21.700   3.381E+00
   21.800   3.282E+00
   21.900   3.187E+00
   22.000   3.096E+00
   22.100   3.008E+00
   22.200   2.925E+00
   22.300   2.845E+00
   22.400   2.768E+00
   22.500   2.694E+00
   22.600   2.623E+00
   22.700   2.555E+00
   22.800   2.490E+00
   22.900   2.427E+00
   23.000   2.367E+00
   23.100   2.309E+00
   23.200   2.253E+00
   23.300   2.200E+00
   23.400   2.148E+00
   23.500   2.098E+00
   23.600   2.050E+00
   23.700   2.004E+00
   23.800   1.959E+00
   23.900   1.916E+00
   24.000   1.875E+00
   24.100   1.835E+00
   24.200   1.796E+00
   24.300   1.758E+00
   24.400   1.722E+00
   24.500   1.687E+00
   24.600   1.653E+00
   24.700   1.621E+00
   24.800   1.589E+00
   24.900   1.558E+00
   25.000   1.528E+00
   25.100   1.499E+00
   25.200   1.471E+00
   25.300   1.444E+00
   25.400   1.418E+00
   25.500   1.392E+00
   25.600   1.367E+00
   25.700   1.343E+00
   25.800   1.320E+00
   25.900   1.297E+00
   26.000   1.275E+00
   26.100   1.253E+00
   26.200   1.232E+00
   26.300   1.212E+00
   26.400   1.192E+00
   26.500   1.172E+00
   26.600   1.154E+00
   26.700   1.135E+00
   26.800   1.117E+00
   26.900   1.100E+00
   27.000   1.083E+00
   27.100   1.067E+00
   27.200   1.050E+00
   27.300   1.035E+00
   27.400   1.019E+00
   27.500   1.004E+00
   27.600   9.896E-01
   27.700   9.753E-01
   27.800   9.613E-01
   27.900   9.477E-01
   28.000   9.344E-01
   28.100   9.213E-01
   28.200   9.086E-01
   28.300   8.962E-01
   28.400   8.840E-01
   28.500   8.721E-01
   28.600   8.604E-01
   28.700   8.491E-01
   28.800   8.379E-01
   28.900   8.270E-01
   29.000   8.163E-01
   29.100   8.059E-01
   29.200   7.956E-01
   29.300   7.856E-01
   29.400   7.758E-01
   29.500   7.661E-01
   29.600   7.567E-01
   29.700   7.475E-01
   29.800   7.384E-01
   29.900   7.295E-01
   30.000   7.208E-01
 
 Z=  44 A= 109  D1M-QRPA-Inter
 E[MeV]  fQRPA[mb/MeV]
    0.100   1.279E-04
    0.200   5.118E-04
    0.300   1.153E-03
    0.400   2.052E-03
    0.500   3.211E-03
    0.600   4.633E-03
    0.700   6.320E-03
    0.800   8.274E-03
    0.900   1.050E-02
    1.000   1.299E-02
    1.100   1.575E-02
    1.200   1.879E-02
    1.300   2.209E-02
    1.400   2.565E-02
    1.500   2.947E-02
    1.600   3.354E-02
    1.700   3.783E-02
    1.800   4.234E-02
    1.900   4.703E-02
    2.000   5.190E-02
    2.100   5.691E-02
    2.200   6.202E-02
    2.300   6.722E-02
    2.400   7.246E-02
    2.500   7.772E-02
    2.600   8.297E-02
    2.700   8.818E-02
    2.800   9.335E-02
    2.900   9.844E-02
    3.000   1.035E-01
    3.100   1.084E-01
    3.200   1.133E-01
    3.300   1.182E-01
    3.400   1.230E-01
    3.500   1.278E-01
    3.600   1.326E-01
    3.700   1.375E-01
    3.800   1.425E-01
    3.900   1.476E-01
    4.000   1.527E-01
    4.100   1.581E-01
    4.200   1.636E-01
    4.300   1.694E-01
    4.400   1.753E-01
    4.500   1.815E-01
    4.600   1.880E-01
    4.700   1.948E-01
    4.800   2.018E-01
    4.900   2.092E-01
    5.000   2.169E-01
    5.100   2.250E-01
    5.200   2.335E-01
    5.300   2.424E-01
    5.400   2.517E-01
    5.500   2.614E-01
    5.600   2.717E-01
    5.700   2.824E-01
    5.800   2.937E-01
    5.900   3.055E-01
    6.000   3.179E-01
    6.100   3.309E-01
    6.200   3.445E-01
    6.300   3.588E-01
    6.400   3.738E-01
    6.500   3.894E-01
    6.600   4.058E-01
    6.700   4.230E-01
    6.800   4.409E-01
    6.900   4.597E-01
    7.000   4.792E-01
    7.100   4.997E-01
    7.200   5.210E-01
    7.300   5.433E-01
    7.400   5.666E-01
    7.500   5.908E-01
    7.600   6.160E-01
    7.700   6.423E-01
    7.800   6.697E-01
    7.900   6.982E-01
    8.000   7.279E-01
    8.100   7.588E-01
    8.200   7.909E-01
    8.300   8.243E-01
    8.400   8.590E-01
    8.500   8.950E-01
    8.600   9.323E-01
    8.700   9.710E-01
    8.800   1.011E+00
    8.900   1.053E+00
    9.000   1.096E+00
    9.100   1.140E+00
    9.200   1.187E+00
    9.300   1.234E+00
    9.400   1.284E+00
    9.500   1.335E+00
    9.600   1.388E+00
    9.700   1.444E+00
    9.800   1.501E+00
    9.900   1.560E+00
   10.000   1.622E+00
   10.100   1.686E+00
   10.200   1.753E+00
   10.300   1.823E+00
   10.400   1.896E+00
   10.500   1.972E+00
   10.600   2.051E+00
   10.700   2.134E+00
   10.800   2.221E+00
   10.900   2.311E+00
   11.000   2.406E+00
   11.100   2.505E+00
   11.200   2.609E+00
   11.300   2.718E+00
   11.400   2.832E+00
   11.500   2.952E+00
   11.600   3.077E+00
   11.700   3.209E+00
   11.800   3.347E+00
   11.900   3.492E+00
   12.000   3.644E+00
   12.100   3.803E+00
   12.200   3.970E+00
   12.300   4.145E+00
   12.400   4.328E+00
   12.500   4.520E+00
   12.600   4.721E+00
   12.700   4.931E+00
   12.800   5.150E+00
   12.900   5.379E+00
   13.000   5.617E+00
   13.100   5.865E+00
   13.200   6.123E+00
   13.300   6.390E+00
   13.400   6.666E+00
   13.500   6.952E+00
   13.600   7.246E+00
   13.700   7.548E+00
   13.800   7.856E+00
   13.900   8.171E+00
   14.000   8.490E+00
   14.100   8.812E+00
   14.200   9.134E+00
   14.300   9.456E+00
   14.400   9.773E+00
   14.500   1.008E+01
   14.600   1.038E+01
   14.700   1.067E+01
   14.800   1.095E+01
   14.900   1.120E+01
   15.000   1.144E+01
   15.100   1.165E+01
   15.200   1.184E+01
   15.300   1.201E+01
   15.400   1.215E+01
   15.500   1.226E+01
   15.600   1.235E+01
   15.700   1.242E+01
   15.800   1.247E+01
   15.900   1.251E+01
   16.000   1.252E+01
   16.100   1.252E+01
   16.200   1.251E+01
   16.300   1.248E+01
   16.400   1.244E+01
   16.500   1.240E+01
   16.600   1.234E+01
   16.700   1.227E+01
   16.800   1.220E+01
   16.900   1.211E+01
   17.000   1.202E+01
   17.100   1.191E+01
   17.200   1.179E+01
   17.300   1.167E+01
   17.400   1.153E+01
   17.500   1.138E+01
   17.600   1.122E+01
   17.700   1.105E+01
   17.800   1.087E+01
   17.900   1.068E+01
   18.000   1.048E+01
   18.100   1.028E+01
   18.200   1.008E+01
   18.300   9.864E+00
   18.400   9.650E+00
   18.500   9.433E+00
   18.600   9.215E+00
   18.700   8.995E+00
   18.800   8.776E+00
   18.900   8.555E+00
   19.000   8.335E+00
   19.100   8.115E+00
   19.200   7.895E+00
   19.300   7.675E+00
   19.400   7.455E+00
   19.500   7.236E+00
   19.600   7.018E+00
   19.700   6.801E+00
   19.800   6.586E+00
   19.900   6.373E+00
   20.000   6.162E+00
   20.100   5.955E+00
   20.200   5.752E+00
   20.300   5.554E+00
   20.400   5.360E+00
   20.500   5.173E+00
   20.600   4.991E+00
   20.700   4.815E+00
   20.800   4.646E+00
   20.900   4.483E+00
   21.000   4.326E+00
   21.100   4.176E+00
   21.200   4.033E+00
   21.300   3.895E+00
   21.400   3.764E+00
   21.500   3.639E+00
   21.600   3.519E+00
   21.700   3.405E+00
   21.800   3.296E+00
   21.900   3.192E+00
   22.000   3.093E+00
   22.100   2.998E+00
   22.200   2.907E+00
   22.300   2.821E+00
   22.400   2.738E+00
   22.500   2.660E+00
   22.600   2.584E+00
   22.700   2.512E+00
   22.800   2.443E+00
   22.900   2.377E+00
   23.000   2.314E+00
   23.100   2.253E+00
   23.200   2.195E+00
   23.300   2.139E+00
   23.400   2.085E+00
   23.500   2.034E+00
   23.600   1.984E+00
   23.700   1.937E+00
   23.800   1.891E+00
   23.900   1.847E+00
   24.000   1.805E+00
   24.100   1.764E+00
   24.200   1.724E+00
   24.300   1.687E+00
   24.400   1.650E+00
   24.500   1.615E+00
   24.600   1.581E+00
   24.700   1.548E+00
   24.800   1.516E+00
   24.900   1.485E+00
   25.000   1.455E+00
   25.100   1.426E+00
   25.200   1.399E+00
   25.300   1.372E+00
   25.400   1.345E+00
   25.500   1.320E+00
   25.600   1.295E+00
   25.700   1.272E+00
   25.800   1.248E+00
   25.900   1.226E+00
   26.000   1.204E+00
   26.100   1.183E+00
   26.200   1.163E+00
   26.300   1.143E+00
   26.400   1.123E+00
   26.500   1.104E+00
   26.600   1.086E+00
   26.700   1.068E+00
   26.800   1.051E+00
   26.900   1.034E+00
   27.000   1.017E+00
   27.100   1.001E+00
   27.200   9.855E-01
   27.300   9.702E-01
   27.400   9.553E-01
   27.500   9.408E-01
   27.600   9.267E-01
   27.700   9.129E-01
   27.800   8.995E-01
   27.900   8.863E-01
   28.000   8.735E-01
   28.100   8.610E-01
   28.200   8.487E-01
   28.300   8.368E-01
   28.400   8.251E-01
   28.500   8.137E-01
   28.600   8.026E-01
   28.700   7.917E-01
   28.800   7.810E-01
   28.900   7.706E-01
   29.000   7.604E-01
   29.100   7.504E-01
   29.200   7.406E-01
   29.300   7.310E-01
   29.400   7.217E-01
   29.500   7.125E-01
   29.600   7.035E-01
   29.700   6.947E-01
   29.800   6.861E-01
   29.900   6.777E-01
   30.000   6.694E-01
 
 Z=  44 A= 110  D1M-QRPA
   E[MeV]   fQRPA[mb/MeV]
    0.100   7.134E-05
    0.200   2.856E-04
    0.300   6.435E-04
    0.400   1.146E-03
    0.500   1.796E-03
    0.600   2.594E-03
    0.700   3.543E-03
    0.800   4.647E-03
    0.900   5.908E-03
    1.000   7.330E-03
    1.100   8.917E-03
    1.200   1.067E-02
    1.300   1.260E-02
    1.400   1.470E-02
    1.500   1.699E-02
    1.600   1.945E-02
    1.700   2.209E-02
    1.800   2.491E-02
    1.900   2.791E-02
    2.000   3.108E-02
    2.100   3.442E-02
    2.200   3.791E-02
    2.300   4.155E-02
    2.400   4.532E-02
    2.500   4.920E-02
    2.600   5.318E-02
    2.700   5.724E-02
    2.800   6.137E-02
    2.900   6.555E-02
    3.000   6.978E-02
    3.100   7.405E-02
    3.200   7.836E-02
    3.300   8.271E-02
    3.400   8.712E-02
    3.500   9.160E-02
    3.600   9.615E-02
    3.700   1.008E-01
    3.800   1.056E-01
    3.900   1.105E-01
    4.000   1.155E-01
    4.100   1.208E-01
    4.200   1.262E-01
    4.300   1.318E-01
    4.400   1.376E-01
    4.500   1.436E-01
    4.600   1.499E-01
    4.700   1.565E-01
    4.800   1.633E-01
    4.900   1.704E-01
    5.000   1.778E-01
    5.100   1.856E-01
    5.200   1.936E-01
    5.300   2.021E-01
    5.400   2.109E-01
    5.500   2.201E-01
    5.600   2.298E-01
    5.700   2.399E-01
    5.800   2.504E-01
    5.900   2.615E-01
    6.000   2.731E-01
    6.100   2.853E-01
    6.200   2.980E-01
    6.300   3.114E-01
    6.400   3.254E-01
    6.500   3.400E-01
    6.600   3.554E-01
    6.700   3.714E-01
    6.800   3.882E-01
    6.900   4.057E-01
    7.000   4.240E-01
    7.100   4.432E-01
    7.200   4.632E-01
    7.300   4.840E-01
    7.400   5.057E-01
    7.500   5.284E-01
    7.600   5.520E-01
    7.700   5.766E-01
    7.800   6.023E-01
    7.900   6.290E-01
    8.000   6.567E-01
    8.100   6.857E-01
    8.200   7.157E-01
    8.300   7.470E-01
    8.400   7.794E-01
    8.500   8.131E-01
    8.600   8.481E-01
    8.700   8.843E-01
    8.800   9.218E-01
    8.900   9.607E-01
    9.000   1.001E+00
    9.100   1.042E+00
    9.200   1.085E+00
    9.300   1.130E+00
    9.400   1.176E+00
    9.500   1.223E+00
    9.600   1.272E+00
    9.700   1.323E+00
    9.800   1.376E+00
    9.900   1.431E+00
   10.000   1.487E+00
   10.100   1.546E+00
   10.200   1.608E+00
   10.300   1.672E+00
   10.400   1.739E+00
   10.500   1.808E+00
   10.600   1.881E+00
   10.700   1.957E+00
   10.800   2.037E+00
   10.900   2.121E+00
   11.000   2.208E+00
   11.100   2.300E+00
   11.200   2.396E+00
   11.300   2.497E+00
   11.400   2.603E+00
   11.500   2.715E+00
   11.600   2.832E+00
   11.700   2.955E+00
   11.800   3.084E+00
   11.900   3.220E+00
   12.000   3.363E+00
   12.100   3.513E+00
   12.200   3.671E+00
   12.300   3.837E+00
   12.400   4.011E+00
   12.500   4.194E+00
   12.600   4.386E+00
   12.700   4.587E+00
   12.800   4.798E+00
   12.900   5.019E+00
   13.000   5.250E+00
   13.100   5.491E+00
   13.200   5.743E+00
   13.300   6.006E+00
   13.400   6.280E+00
   13.500   6.564E+00
   13.600   6.859E+00
   13.700   7.165E+00
   13.800   7.480E+00
   13.900   7.804E+00
   14.000   8.137E+00
   14.100   8.476E+00
   14.200   8.820E+00
   14.300   9.167E+00
   14.400   9.514E+00
   14.500   9.857E+00
   14.600   1.020E+01
   14.700   1.052E+01
   14.800   1.084E+01
   14.900   1.113E+01
   15.000   1.141E+01
   15.100   1.166E+01
   15.200   1.189E+01
   15.300   1.209E+01
   15.400   1.226E+01
   15.500   1.240E+01
   15.600   1.251E+01
   15.700   1.259E+01
   15.800   1.265E+01
   15.900   1.268E+01
   16.000   1.269E+01
   16.100   1.269E+01
   16.200   1.267E+01
   16.300   1.264E+01
   16.400   1.259E+01
   16.500   1.254E+01
   16.600   1.248E+01
   16.700   1.240E+01
   16.800   1.232E+01
   16.900   1.224E+01
   17.000   1.214E+01
   17.100   1.203E+01
   17.200   1.192E+01
   17.300   1.179E+01
   17.400   1.165E+01
   17.500   1.151E+01
   17.600   1.135E+01
   17.700   1.118E+01
   17.800   1.100E+01
   17.900   1.082E+01
   18.000   1.063E+01
   18.100   1.043E+01
   18.200   1.023E+01
   18.300   1.002E+01
   18.400   9.816E+00
   18.500   9.608E+00
   18.600   9.399E+00
   18.700   9.190E+00
   18.800   8.982E+00
   18.900   8.774E+00
   19.000   8.565E+00
   19.100   8.357E+00
   19.200   8.148E+00
   19.300   7.938E+00
   19.400   7.726E+00
   19.500   7.512E+00
   19.600   7.297E+00
   19.700   7.080E+00
   19.800   6.861E+00
   19.900   6.642E+00
   20.000   6.423E+00
   20.100   6.205E+00
   20.200   5.988E+00
   20.300   5.775E+00
   20.400   5.566E+00
   20.500   5.361E+00
   20.600   5.162E+00
   20.700   4.969E+00
   20.800   4.782E+00
   20.900   4.602E+00
   21.000   4.429E+00
   21.100   4.264E+00
   21.200   4.106E+00
   21.300   3.955E+00
   21.400   3.810E+00
   21.500   3.673E+00
   21.600   3.542E+00
   21.700   3.418E+00
   21.800   3.299E+00
   21.900   3.187E+00
   22.000   3.080E+00
   22.100   2.978E+00
   22.200   2.881E+00
   22.300   2.789E+00
   22.400   2.701E+00
   22.500   2.617E+00
   22.600   2.538E+00
   22.700   2.462E+00
   22.800   2.389E+00
   22.900   2.320E+00
   23.000   2.254E+00
   23.100   2.191E+00
   23.200   2.131E+00
   23.300   2.073E+00
   23.400   2.018E+00
   23.500   1.965E+00
   23.600   1.915E+00
   23.700   1.866E+00
   23.800   1.820E+00
   23.900   1.775E+00
   24.000   1.732E+00
   24.100   1.691E+00
   24.200   1.651E+00
   24.300   1.613E+00
   24.400   1.576E+00
   24.500   1.540E+00
   24.600   1.506E+00
   24.700   1.473E+00
   24.800   1.442E+00
   24.900   1.411E+00
   25.000   1.381E+00
   25.100   1.353E+00
   25.200   1.325E+00
   25.300   1.299E+00
   25.400   1.273E+00
   25.500   1.248E+00
   25.600   1.224E+00
   25.700   1.200E+00
   25.800   1.178E+00
   25.900   1.156E+00
   26.000   1.134E+00
   26.100   1.114E+00
   26.200   1.093E+00
   26.300   1.074E+00
   26.400   1.055E+00
   26.500   1.037E+00
   26.600   1.019E+00
   26.700   1.002E+00
   26.800   9.847E-01
   26.900   9.683E-01
   27.000   9.524E-01
   27.100   9.368E-01
   27.200   9.217E-01
   27.300   9.070E-01
   27.400   8.927E-01
   27.500   8.787E-01
   27.600   8.651E-01
   27.700   8.519E-01
   27.800   8.390E-01
   27.900   8.264E-01
   28.000   8.141E-01
   28.100   8.021E-01
   28.200   7.904E-01
   28.300   7.790E-01
   28.400   7.678E-01
   28.500   7.569E-01
   28.600   7.463E-01
   28.700   7.359E-01
   28.800   7.257E-01
   28.900   7.158E-01
   29.000   7.060E-01
   29.100   6.966E-01
   29.200   6.873E-01
   29.300   6.782E-01
   29.400   6.693E-01
   29.500   6.606E-01
   29.600   6.521E-01
   29.700   6.437E-01
   29.800   6.356E-01
   29.900   6.276E-01
   30.000   6.198E-01
 
 Z=  44 A= 111  D1M-QRPA-Inter
 E[MeV]  fQRPA[mb/MeV]
    0.100   1.175E-04
    0.200   4.694E-04
    0.300   1.054E-03
    0.400   1.868E-03
    0.500   2.907E-03
    0.600   4.165E-03
    0.700   5.638E-03
    0.800   7.315E-03
    0.900   9.191E-03
    1.000   1.126E-02
    1.100   1.350E-02
    1.200   1.592E-02
    1.300   1.851E-02
    1.400   2.126E-02
    1.500   2.417E-02
    1.600   2.722E-02
    1.700   3.043E-02
    1.800   3.379E-02
    1.900   3.730E-02
    2.000   4.096E-02
    2.100   4.477E-02
    2.200   4.872E-02
    2.300   5.281E-02
    2.400   5.705E-02
    2.500   6.142E-02
    2.600   6.593E-02
    2.700   7.056E-02
    2.800   7.532E-02
    2.900   8.020E-02
    3.000   8.520E-02
    3.100   9.032E-02
    3.200   9.558E-02
    3.300   1.010E-01
    3.400   1.065E-01
    3.500   1.122E-01
    3.600   1.181E-01
    3.700   1.242E-01
    3.800   1.305E-01
    3.900   1.370E-01
    4.000   1.438E-01
    4.100   1.508E-01
    4.200   1.582E-01
    4.300   1.658E-01
    4.400   1.738E-01
    4.500   1.822E-01
    4.600   1.909E-01
    4.700   2.001E-01
    4.800   2.096E-01
    4.900   2.196E-01
    5.000   2.301E-01
    5.100   2.410E-01
    5.200   2.525E-01
    5.300   2.644E-01
    5.400   2.769E-01
    5.500   2.900E-01
    5.600   3.037E-01
    5.700   3.180E-01
    5.800   3.329E-01
    5.900   3.485E-01
    6.000   3.649E-01
    6.100   3.819E-01
    6.200   3.998E-01
    6.300   4.184E-01
    6.400   4.378E-01
    6.500   4.581E-01
    6.600   4.793E-01
    6.700   5.013E-01
    6.800   5.243E-01
    6.900   5.483E-01
    7.000   5.733E-01
    7.100   5.992E-01
    7.200   6.262E-01
    7.300   6.543E-01
    7.400   6.834E-01
    7.500   7.137E-01
    7.600   7.451E-01
    7.700   7.776E-01
    7.800   8.113E-01
    7.900   8.463E-01
    8.000   8.826E-01
    8.100   9.201E-01
    8.200   9.590E-01
    8.300   9.993E-01
    8.400   1.041E+00
    8.500   1.084E+00
    8.600   1.129E+00
    8.700   1.176E+00
    8.800   1.224E+00
    8.900   1.274E+00
    9.000   1.326E+00
    9.100   1.380E+00
    9.200   1.436E+00
    9.300   1.494E+00
    9.400   1.554E+00
    9.500   1.617E+00
    9.600   1.683E+00
    9.700   1.751E+00
    9.800   1.822E+00
    9.900   1.896E+00
   10.000   1.974E+00
   10.100   2.054E+00
   10.200   2.139E+00
   10.300   2.227E+00
   10.400   2.319E+00
   10.500   2.415E+00
   10.600   2.516E+00
   10.700   2.622E+00
   10.800   2.732E+00
   10.900   2.848E+00
   11.000   2.969E+00
   11.100   3.096E+00
   11.200   3.229E+00
   11.300   3.368E+00
   11.400   3.514E+00
   11.500   3.666E+00
   11.600   3.826E+00
   11.700   3.993E+00
   11.800   4.167E+00
   11.900   4.350E+00
   12.000   4.541E+00
   12.100   4.740E+00
   12.200   4.949E+00
   12.300   5.167E+00
   12.400   5.395E+00
   12.500   5.632E+00
   12.600   5.880E+00
   12.700   6.137E+00
   12.800   6.405E+00
   12.900   6.682E+00
   13.000   6.969E+00
   13.100   7.264E+00
   13.200   7.568E+00
   13.300   7.879E+00
   13.400   8.195E+00
   13.500   8.516E+00
   13.600   8.839E+00
   13.700   9.162E+00
   13.800   9.484E+00
   13.900   9.802E+00
   14.000   1.011E+01
   14.100   1.041E+01
   14.200   1.070E+01
   14.300   1.098E+01
   14.400   1.124E+01
   14.500   1.148E+01
   14.600   1.170E+01
   14.700   1.191E+01
   14.800   1.209E+01
   14.900   1.224E+01
   15.000   1.238E+01
   15.100   1.249E+01
   15.200   1.258E+01
   15.300   1.265E+01
   15.400   1.270E+01
   15.500   1.273E+01
   15.600   1.274E+01
   15.700   1.273E+01
   15.800   1.271E+01
   15.900   1.267E+01
   16.000   1.263E+01
   16.100   1.257E+01
   16.200   1.250E+01
   16.300   1.242E+01
   16.400   1.233E+01
   16.500   1.223E+01
   16.600   1.213E+01
   16.700   1.201E+01
   16.800   1.189E+01
   16.900   1.175E+01
   17.000   1.161E+01
   17.100   1.146E+01
   17.200   1.130E+01
   17.300   1.113E+01
   17.400   1.096E+01
   17.500   1.078E+01
   17.600   1.059E+01
   17.700   1.040E+01
   17.800   1.020E+01
   17.900   1.001E+01
   18.000   9.812E+00
   18.100   9.615E+00
   18.200   9.420E+00
   18.300   9.228E+00
   18.400   9.038E+00
   18.500   8.851E+00
   18.600   8.668E+00
   18.700   8.488E+00
   18.800   8.311E+00
   18.900   8.137E+00
   19.000   7.966E+00
   19.100   7.796E+00
   19.200   7.627E+00
   19.300   7.458E+00
   19.400   7.289E+00
   19.500   7.119E+00
   19.600   6.947E+00
   19.700   6.775E+00
   19.800   6.600E+00
   19.900   6.425E+00
   20.000   6.248E+00
   20.100   6.071E+00
   20.200   5.894E+00
   20.300   5.717E+00
   20.400   5.542E+00
   20.500   5.369E+00
   20.600   5.198E+00
   20.700   5.030E+00
   20.800   4.866E+00
   20.900   4.705E+00
   21.000   4.549E+00
   21.100   4.396E+00
   21.200   4.249E+00
   21.300   4.106E+00
   21.400   3.967E+00
   21.500   3.834E+00
   21.600   3.705E+00
   21.700   3.581E+00
   21.800   3.461E+00
   21.900   3.346E+00
   22.000   3.236E+00
   22.100   3.131E+00
   22.200   3.030E+00
   22.300   2.933E+00
   22.400   2.840E+00
   22.500   2.752E+00
   22.600   2.667E+00
   22.700   2.586E+00
   22.800   2.509E+00
   22.900   2.435E+00
   23.000   2.364E+00
   23.100   2.296E+00
   23.200   2.232E+00
   23.300   2.170E+00
   23.400   2.111E+00
   23.500   2.055E+00
   23.600   2.001E+00
   23.700   1.949E+00
   23.800   1.899E+00
   23.900   1.852E+00
   24.000   1.806E+00
   24.100   1.762E+00
   24.200   1.720E+00
   24.300   1.680E+00
   24.400   1.641E+00
   24.500   1.603E+00
   24.600   1.567E+00
   24.700   1.533E+00
   24.800   1.499E+00
   24.900   1.467E+00
   25.000   1.436E+00
   25.100   1.406E+00
   25.200   1.377E+00
   25.300   1.349E+00
   25.400   1.322E+00
   25.500   1.296E+00
   25.600   1.271E+00
   25.700   1.247E+00
   25.800   1.223E+00
   25.900   1.200E+00
   26.000   1.178E+00
   26.100   1.157E+00
   26.200   1.136E+00
   26.300   1.115E+00
   26.400   1.096E+00
   26.500   1.077E+00
   26.600   1.058E+00
   26.700   1.040E+00
   26.800   1.023E+00
   26.900   1.006E+00
   27.000   9.895E-01
   27.100   9.735E-01
   27.200   9.578E-01
   27.300   9.426E-01
   27.400   9.279E-01
   27.500   9.134E-01
   27.600   8.994E-01
   27.700   8.857E-01
   27.800   8.724E-01
   27.900   8.594E-01
   28.000   8.467E-01
   28.100   8.343E-01
   28.200   8.222E-01
   28.300   8.105E-01
   28.400   7.990E-01
   28.500   7.877E-01
   28.600   7.768E-01
   28.700   7.660E-01
   28.800   7.556E-01
   28.900   7.453E-01
   29.000   7.353E-01
   29.100   7.255E-01
   29.200   7.159E-01
   29.300   7.066E-01
   29.400   6.974E-01
   29.500   6.885E-01
   29.600   6.797E-01
   29.700   6.711E-01
   29.800   6.627E-01
   29.900   6.544E-01
   30.000   6.464E-01
 
 Z=  44 A= 112  D1M-QRPA
   E[MeV]   fQRPA[mb/MeV]
    0.100   1.909E-04
    0.200   7.611E-04
    0.300   1.703E-03
    0.400   3.002E-03
    0.500   4.642E-03
    0.600   6.601E-03
    0.700   8.851E-03
    0.800   1.136E-02
    0.900   1.411E-02
    1.000   1.706E-02
    1.100   2.018E-02
    1.200   2.344E-02
    1.300   2.683E-02
    1.400   3.033E-02
    1.500   3.393E-02
    1.600   3.761E-02
    1.700   4.138E-02
    1.800   4.524E-02
    1.900   4.919E-02
    2.000   5.326E-02
    2.100   5.745E-02
    2.200   6.177E-02
    2.300   6.624E-02
    2.400   7.086E-02
    2.500   7.566E-02
    2.600   8.064E-02
    2.700   8.582E-02
    2.800   9.120E-02
    2.900   9.681E-02
    3.000   1.026E-01
    3.100   1.087E-01
    3.200   1.150E-01
    3.300   1.216E-01
    3.400   1.285E-01
    3.500   1.356E-01
    3.600   1.431E-01
    3.700   1.509E-01
    3.800   1.591E-01
    3.900   1.676E-01
    4.000   1.765E-01
    4.100   1.859E-01
    4.200   1.957E-01
    4.300   2.059E-01
    4.400   2.167E-01
    4.500   2.280E-01
    4.600   2.399E-01
    4.700   2.524E-01
    4.800   2.655E-01
    4.900   2.793E-01
    5.000   2.937E-01
    5.100   3.089E-01
    5.200   3.247E-01
    5.300   3.414E-01
    5.400   3.588E-01
    5.500   3.770E-01
    5.600   3.960E-01
    5.700   4.159E-01
    5.800   4.367E-01
    5.900   4.583E-01
    6.000   4.809E-01
    6.100   5.045E-01
    6.200   5.291E-01
    6.300   5.546E-01
    6.400   5.813E-01
    6.500   6.090E-01
    6.600   6.378E-01
    6.700   6.677E-01
    6.800   6.989E-01
    6.900   7.312E-01
    7.000   7.647E-01
    7.100   7.995E-01
    7.200   8.355E-01
    7.300   8.727E-01
    7.400   9.113E-01
    7.500   9.511E-01
    7.600   9.922E-01
    7.700   1.035E+00
    7.800   1.078E+00
    7.900   1.124E+00
    8.000   1.170E+00
    8.100   1.218E+00
    8.200   1.268E+00
    8.300   1.319E+00
    8.400   1.372E+00
    8.500   1.427E+00
    8.600   1.483E+00
    8.700   1.542E+00
    8.800   1.603E+00
    8.900   1.667E+00
    9.000   1.733E+00
    9.100   1.802E+00
    9.200   1.874E+00
    9.300   1.949E+00
    9.400   2.028E+00
    9.500   2.110E+00
    9.600   2.196E+00
    9.700   2.287E+00
    9.800   2.381E+00
    9.900   2.480E+00
   10.000   2.584E+00
   10.100   2.693E+00
   10.200   2.807E+00
   10.300   2.926E+00
   10.400   3.052E+00
   10.500   3.183E+00
   10.600   3.321E+00
   10.700   3.465E+00
   10.800   3.616E+00
   10.900   3.774E+00
   11.000   3.940E+00
   11.100   4.113E+00
   11.200   4.294E+00
   11.300   4.483E+00
   11.400   4.680E+00
   11.500   4.886E+00
   11.600   5.100E+00
   11.700   5.323E+00
   11.800   5.556E+00
   11.900   5.798E+00
   12.000   6.049E+00
   12.100   6.311E+00
   12.200   6.583E+00
   12.300   6.866E+00
   12.400   7.159E+00
   12.500   7.463E+00
   12.600   7.778E+00
   12.700   8.102E+00
   12.800   8.436E+00
   12.900   8.778E+00
   13.000   9.128E+00
   13.100   9.482E+00
   13.200   9.840E+00
   13.300   1.020E+01
   13.400   1.055E+01
   13.500   1.090E+01
   13.600   1.124E+01
   13.700   1.156E+01
   13.800   1.187E+01
   13.900   1.215E+01
   14.000   1.240E+01
   14.100   1.263E+01
   14.200   1.282E+01
   14.300   1.298E+01
   14.400   1.310E+01
   14.500   1.320E+01
   14.600   1.326E+01
   14.700   1.329E+01
   14.800   1.330E+01
   14.900   1.328E+01
   15.000   1.325E+01
   15.100   1.320E+01
   15.200   1.313E+01
   15.300   1.306E+01
   15.400   1.298E+01
   15.500   1.289E+01
   15.600   1.280E+01
   15.700   1.270E+01
   15.800   1.260E+01
   15.900   1.250E+01
   16.000   1.239E+01
   16.100   1.228E+01
   16.200   1.217E+01
   16.300   1.204E+01
   16.400   1.191E+01
   16.500   1.178E+01
   16.600   1.163E+01
   16.700   1.148E+01
   16.800   1.131E+01
   16.900   1.114E+01
   17.000   1.096E+01
   17.100   1.077E+01
   17.200   1.057E+01
   17.300   1.037E+01
   17.400   1.017E+01
   17.500   9.958E+00
   17.600   9.749E+00
   17.700   9.542E+00
   17.800   9.336E+00
   17.900   9.135E+00
   18.000   8.938E+00
   18.100   8.746E+00
   18.200   8.561E+00
   18.300   8.382E+00
   18.400   8.210E+00
   18.500   8.045E+00
   18.600   7.887E+00
   18.700   7.735E+00
   18.800   7.589E+00
   18.900   7.447E+00
   19.000   7.310E+00
   19.100   7.176E+00
   19.200   7.044E+00
   19.300   6.914E+00
   19.400   6.785E+00
   19.500   6.656E+00
   19.600   6.527E+00
   19.700   6.396E+00
   19.800   6.265E+00
   19.900   6.132E+00
   20.000   5.997E+00
   20.100   5.861E+00
   20.200   5.723E+00
   20.300   5.585E+00
   20.400   5.445E+00
   20.500   5.305E+00
   20.600   5.165E+00
   20.700   5.025E+00
   20.800   4.885E+00
   20.900   4.747E+00
   21.000   4.609E+00
   21.100   4.473E+00
   21.200   4.338E+00
   21.300   4.206E+00
   21.400   4.076E+00
   21.500   3.948E+00
   21.600   3.823E+00
   21.700   3.701E+00
   21.800   3.583E+00
   21.900   3.467E+00
   22.000   3.356E+00
   22.100   3.248E+00
   22.200   3.144E+00
   22.300   3.043E+00
   22.400   2.947E+00
   22.500   2.854E+00
   22.600   2.765E+00
   22.700   2.680E+00
   22.800   2.599E+00
   22.900   2.521E+00
   23.000   2.446E+00
   23.100   2.375E+00
   23.200   2.307E+00
   23.300   2.241E+00
   23.400   2.179E+00
   23.500   2.120E+00
   23.600   2.063E+00
   23.700   2.008E+00
   23.800   1.956E+00
   23.900   1.906E+00
   24.000   1.858E+00
   24.100   1.812E+00
   24.200   1.768E+00
   24.300   1.726E+00
   24.400   1.685E+00
   24.500   1.647E+00
   24.600   1.609E+00
   24.700   1.573E+00
   24.800   1.539E+00
   24.900   1.505E+00
   25.000   1.473E+00
   25.100   1.442E+00
   25.200   1.412E+00
   25.300   1.383E+00
   25.400   1.356E+00
   25.500   1.329E+00
   25.600   1.303E+00
   25.700   1.278E+00
   25.800   1.253E+00
   25.900   1.230E+00
   26.000   1.207E+00
   26.100   1.185E+00
   26.200   1.164E+00
   26.300   1.143E+00
   26.400   1.123E+00
   26.500   1.104E+00
   26.600   1.085E+00
   26.700   1.066E+00
   26.800   1.049E+00
   26.900   1.031E+00
   27.000   1.014E+00
   27.100   9.981E-01
   27.200   9.821E-01
   27.300   9.666E-01
   27.400   9.516E-01
   27.500   9.369E-01
   27.600   9.226E-01
   27.700   9.086E-01
   27.800   8.951E-01
   27.900   8.818E-01
   28.000   8.689E-01
   28.100   8.563E-01
   28.200   8.440E-01
   28.300   8.320E-01
   28.400   8.203E-01
   28.500   8.089E-01
   28.600   7.977E-01
   28.700   7.868E-01
   28.800   7.762E-01
   28.900   7.658E-01
   29.000   7.556E-01
   29.100   7.456E-01
   29.200   7.359E-01
   29.300   7.264E-01
   29.400   7.171E-01
   29.500   7.080E-01
   29.600   6.990E-01
   29.700   6.903E-01
   29.800   6.817E-01
   29.900   6.734E-01
   30.000   6.652E-01
 
 Z=  44 A= 113  D1M-QRPA-Inter
 E[MeV]  fQRPA[mb/MeV]
    0.100   4.105E-04
    0.200   1.633E-03
    0.300   3.639E-03
    0.400   6.385E-03
    0.500   9.809E-03
    0.600   1.384E-02
    0.700   1.838E-02
    0.800   2.335E-02
    0.900   2.865E-02
    1.000   3.419E-02
    1.100   3.986E-02
    1.200   4.560E-02
    1.300   5.133E-02
    1.400   5.699E-02
    1.500   6.256E-02
    1.600   6.800E-02
    1.700   7.330E-02
    1.800   7.847E-02
    1.900   8.352E-02
    2.000   8.846E-02
    2.100   9.333E-02
    2.200   9.815E-02
    2.300   1.030E-01
    2.400   1.078E-01
    2.500   1.126E-01
    2.600   1.176E-01
    2.700   1.226E-01
    2.800   1.278E-01
    2.900   1.332E-01
    3.000   1.387E-01
    3.100   1.444E-01
    3.200   1.504E-01
    3.300   1.566E-01
    3.400   1.631E-01
    3.500   1.699E-01
    3.600   1.770E-01
    3.700   1.845E-01
    3.800   1.923E-01
    3.900   2.005E-01
    4.000   2.092E-01
    4.100   2.183E-01
    4.200   2.279E-01
    4.300   2.380E-01
    4.400   2.486E-01
    4.500   2.599E-01
    4.600   2.717E-01
    4.700   2.842E-01
    4.800   2.973E-01
    4.900   3.111E-01
    5.000   3.257E-01
    5.100   3.410E-01
    5.200   3.570E-01
    5.300   3.739E-01
    5.400   3.916E-01
    5.500   4.102E-01
    5.600   4.296E-01
    5.700   4.500E-01
    5.800   4.713E-01
    5.900   4.935E-01
    6.000   5.167E-01
    6.100   5.410E-01
    6.200   5.662E-01
    6.300   5.926E-01
    6.400   6.200E-01
    6.500   6.485E-01
    6.600   6.782E-01
    6.700   7.090E-01
    6.800   7.410E-01
    6.900   7.742E-01
    7.000   8.086E-01
    7.100   8.443E-01
    7.200   8.812E-01
    7.300   9.194E-01
    7.400   9.589E-01
    7.500   9.997E-01
    7.600   1.042E+00
    7.700   1.085E+00
    7.800   1.130E+00
    7.900   1.177E+00
    8.000   1.225E+00
    8.100   1.274E+00
    8.200   1.326E+00
    8.300   1.378E+00
    8.400   1.433E+00
    8.500   1.490E+00
    8.600   1.548E+00
    8.700   1.609E+00
    8.800   1.672E+00
    8.900   1.738E+00
    9.000   1.806E+00
    9.100   1.877E+00
    9.200   1.952E+00
    9.300   2.029E+00
    9.400   2.110E+00
    9.500   2.195E+00
    9.600   2.284E+00
    9.700   2.377E+00
    9.800   2.474E+00
    9.900   2.575E+00
   10.000   2.682E+00
   10.100   2.793E+00
   10.200   2.910E+00
   10.300   3.032E+00
   10.400   3.160E+00
   10.500   3.294E+00
   10.600   3.435E+00
   10.700   3.582E+00
   10.800   3.736E+00
   10.900   3.897E+00
   11.000   4.066E+00
   11.100   4.242E+00
   11.200   4.427E+00
   11.300   4.620E+00
   11.400   4.821E+00
   11.500   5.031E+00
   11.600   5.251E+00
   11.700   5.479E+00
   11.800   5.717E+00
   11.900   5.965E+00
   12.000   6.223E+00
   12.100   6.491E+00
   12.200   6.771E+00
   12.300   7.060E+00
   12.400   7.361E+00
   12.500   7.673E+00
   12.600   7.996E+00
   12.700   8.329E+00
   12.800   8.672E+00
   12.900   9.023E+00
   13.000   9.382E+00
   13.100   9.746E+00
   13.200   1.011E+01
   13.300   1.048E+01
   13.400   1.085E+01
   13.500   1.120E+01
   13.600   1.155E+01
   13.700   1.188E+01
   13.800   1.220E+01
   13.900   1.249E+01
   14.000   1.275E+01
   14.100   1.298E+01
   14.200   1.318E+01
   14.300   1.335E+01
   14.400   1.348E+01
   14.500   1.358E+01
   14.600   1.365E+01
   14.700   1.369E+01
   14.800   1.370E+01
   14.900   1.368E+01
   15.000   1.365E+01
   15.100   1.360E+01
   15.200   1.353E+01
   15.300   1.346E+01
   15.400   1.337E+01
   15.500   1.328E+01
   15.600   1.318E+01
   15.700   1.308E+01
   15.800   1.297E+01
   15.900   1.286E+01
   16.000   1.274E+01
   16.100   1.261E+01
   16.200   1.248E+01
   16.300   1.235E+01
   16.400   1.220E+01
   16.500   1.205E+01
   16.600   1.189E+01
   16.700   1.171E+01
   16.800   1.153E+01
   16.900   1.135E+01
   17.000   1.115E+01
   17.100   1.095E+01
   17.200   1.074E+01
   17.300   1.053E+01
   17.400   1.032E+01
   17.500   1.011E+01
   17.600   9.900E+00
   17.700   9.693E+00
   17.800   9.490E+00
   17.900   9.292E+00
   18.000   9.101E+00
   18.100   8.916E+00
   18.200   8.738E+00
   18.300   8.567E+00
   18.400   8.402E+00
   18.500   8.245E+00
   18.600   8.093E+00
   18.700   7.946E+00
   18.800   7.804E+00
   18.900   7.665E+00
   19.000   7.529E+00
   19.100   7.394E+00
   19.200   7.259E+00
   19.300   7.124E+00
   19.400   6.988E+00
   19.500   6.850E+00
   19.600   6.710E+00
   19.700   6.567E+00
   19.800   6.421E+00
   19.900   6.273E+00
   20.000   6.122E+00
   20.100   5.969E+00
   20.200   5.814E+00
   20.300   5.658E+00
   20.400   5.501E+00
   20.500   5.344E+00
   20.600   5.188E+00
   20.700   5.032E+00
   20.800   4.878E+00
   20.900   4.727E+00
   21.000   4.577E+00
   21.100   4.431E+00
   21.200   4.288E+00
   21.300   4.148E+00
   21.400   4.012E+00
   21.500   3.880E+00
   21.600   3.753E+00
   21.700   3.630E+00
   21.800   3.511E+00
   21.900   3.396E+00
   22.000   3.286E+00
   22.100   3.180E+00
   22.200   3.078E+00
   22.300   2.981E+00
   22.400   2.888E+00
   22.500   2.799E+00
   22.600   2.713E+00
   22.700   2.632E+00
   22.800   2.554E+00
   22.900   2.479E+00
   23.000   2.408E+00
   23.100   2.340E+00
   23.200   2.275E+00
   23.300   2.213E+00
   23.400   2.153E+00
   23.500   2.096E+00
   23.600   2.042E+00
   23.700   1.990E+00
   23.800   1.940E+00
   23.900   1.892E+00
   24.000   1.846E+00
   24.100   1.802E+00
   24.200   1.759E+00
   24.300   1.718E+00
   24.400   1.679E+00
   24.500   1.642E+00
   24.600   1.605E+00
   24.700   1.570E+00
   24.800   1.537E+00
   24.900   1.504E+00
   25.000   1.473E+00
   25.100   1.443E+00
   25.200   1.414E+00
   25.300   1.386E+00
   25.400   1.359E+00
   25.500   1.332E+00
   25.600   1.307E+00
   25.700   1.282E+00
   25.800   1.259E+00
   25.900   1.235E+00
   26.000   1.213E+00
   26.100   1.191E+00
   26.200   1.170E+00
   26.300   1.150E+00
   26.400   1.130E+00
   26.500   1.111E+00
   26.600   1.092E+00
   26.700   1.074E+00
   26.800   1.057E+00
   26.900   1.039E+00
   27.000   1.023E+00
   27.100   1.006E+00
   27.200   9.907E-01
   27.300   9.753E-01
   27.400   9.603E-01
   27.500   9.457E-01
   27.600   9.315E-01
   27.700   9.177E-01
   27.800   9.041E-01
   27.900   8.910E-01
   28.000   8.781E-01
   28.100   8.656E-01
   28.200   8.533E-01
   28.300   8.413E-01
   28.400   8.297E-01
   28.500   8.182E-01
   28.600   8.071E-01
   28.700   7.962E-01
   28.800   7.856E-01
   28.900   7.751E-01
   29.000   7.650E-01
   29.100   7.550E-01
   29.200   7.453E-01
   29.300   7.357E-01
   29.400   7.264E-01
   29.500   7.173E-01
   29.600   7.083E-01
   29.700   6.996E-01
   29.800   6.910E-01
   29.900   6.826E-01
   30.000   6.743E-01
 
 Z=  44 A= 114  D1M-QRPA
   E[MeV]   fQRPA[mb/MeV]
    0.100   8.820E-04
    0.200   3.500E-03
    0.300   7.774E-03
    0.400   1.357E-02
    0.500   2.071E-02
    0.600   2.899E-02
    0.700   3.816E-02
    0.800   4.797E-02
    0.900   5.816E-02
    1.000   6.848E-02
    1.100   7.871E-02
    1.200   8.864E-02
    1.300   9.812E-02
    1.400   1.070E-01
    1.500   1.153E-01
    1.600   1.229E-01
    1.700   1.298E-01
    1.800   1.360E-01
    1.900   1.417E-01
    2.000   1.468E-01
    2.100   1.515E-01
    2.200   1.559E-01
    2.300   1.600E-01
    2.400   1.638E-01
    2.500   1.676E-01
    2.600   1.714E-01
    2.700   1.752E-01
    2.800   1.791E-01
    2.900   1.831E-01
    3.000   1.873E-01
    3.100   1.918E-01
    3.200   1.965E-01
    3.300   2.016E-01
    3.400   2.069E-01
    3.500   2.127E-01
    3.600   2.188E-01
    3.700   2.254E-01
    3.800   2.324E-01
    3.900   2.398E-01
    4.000   2.478E-01
    4.100   2.562E-01
    4.200   2.653E-01
    4.300   2.749E-01
    4.400   2.851E-01
    4.500   2.960E-01
    4.600   3.075E-01
    4.700   3.197E-01
    4.800   3.327E-01
    4.900   3.464E-01
    5.000   3.609E-01
    5.100   3.762E-01
    5.200   3.923E-01
    5.300   4.094E-01
    5.400   4.273E-01
    5.500   4.461E-01
    5.600   4.659E-01
    5.700   4.866E-01
    5.800   5.084E-01
    5.900   5.311E-01
    6.000   5.549E-01
    6.100   5.798E-01
    6.200   6.057E-01
    6.300   6.328E-01
    6.400   6.609E-01
    6.500   6.902E-01
    6.600   7.207E-01
    6.700   7.524E-01
    6.800   7.852E-01
    6.900   8.193E-01
    7.000   8.545E-01
    7.100   8.911E-01
    7.200   9.289E-01
    7.300   9.680E-01
    7.400   1.008E+00
    7.500   1.050E+00
    7.600   1.093E+00
    7.700   1.138E+00
    7.800   1.184E+00
    7.900   1.232E+00
    8.000   1.281E+00
    8.100   1.332E+00
    8.200   1.385E+00
    8.300   1.440E+00
    8.400   1.496E+00
    8.500   1.554E+00
    8.600   1.615E+00
    8.700   1.678E+00
    8.800   1.743E+00
    8.900   1.811E+00
    9.000   1.881E+00
    9.100   1.955E+00
    9.200   2.032E+00
    9.300   2.112E+00
    9.400   2.195E+00
    9.500   2.282E+00
    9.600   2.374E+00
    9.700   2.469E+00
    9.800   2.569E+00
    9.900   2.673E+00
   10.000   2.782E+00
   10.100   2.896E+00
   10.200   3.015E+00
   10.300   3.140E+00
   10.400   3.270E+00
   10.500   3.407E+00
   10.600   3.550E+00
   10.700   3.700E+00
   10.800   3.857E+00
   10.900   4.022E+00
   11.000   4.193E+00
   11.100   4.373E+00
   11.200   4.562E+00
   11.300   4.758E+00
   11.400   4.964E+00
   11.500   5.179E+00
   11.600   5.403E+00
   11.700   5.636E+00
   11.800   5.880E+00
   11.900   6.134E+00
   12.000   6.398E+00
   12.100   6.673E+00
   12.200   6.959E+00
   12.300   7.257E+00
   12.400   7.565E+00
   12.500   7.885E+00
   12.600   8.216E+00
   12.700   8.557E+00
   12.800   8.909E+00
   12.900   9.269E+00
   13.000   9.637E+00
   13.100   1.001E+01
   13.200   1.039E+01
   13.300   1.076E+01
   13.400   1.114E+01
   13.500   1.151E+01
   13.600   1.186E+01
   13.700   1.221E+01
   13.800   1.253E+01
   13.900   1.283E+01
   14.000   1.310E+01
   14.100   1.334E+01
   14.200   1.355E+01
   14.300   1.373E+01
   14.400   1.387E+01
   14.500   1.397E+01
   14.600   1.404E+01
   14.700   1.409E+01
   14.800   1.410E+01
   14.900   1.409E+01
   15.000   1.406E+01
   15.100   1.401E+01
   15.200   1.394E+01
   15.300   1.386E+01
   15.400   1.377E+01
   15.500   1.367E+01
   15.600   1.357E+01
   15.700   1.346E+01
   15.800   1.334E+01
   15.900   1.321E+01
   16.000   1.308E+01
   16.100   1.295E+01
   16.200   1.280E+01
   16.300   1.265E+01
   16.400   1.249E+01
   16.500   1.232E+01
   16.600   1.214E+01
   16.700   1.195E+01
   16.800   1.175E+01
   16.900   1.155E+01
   17.000   1.134E+01
   17.100   1.113E+01
   17.200   1.091E+01
   17.300   1.069E+01
   17.400   1.047E+01
   17.500   1.026E+01
   17.600   1.005E+01
   17.700   9.841E+00
   17.800   9.641E+00
   17.900   9.448E+00
   18.000   9.262E+00
   18.100   9.084E+00
   18.200   8.913E+00
   18.300   8.750E+00
   18.400   8.594E+00
   18.500   8.444E+00
   18.600   8.299E+00
   18.700   8.158E+00
   18.800   8.021E+00
   18.900   7.885E+00
   19.000   7.749E+00
   19.100   7.613E+00
   19.200   7.476E+00
   19.300   7.336E+00
   19.400   7.193E+00
   19.500   7.045E+00
   19.600   6.894E+00
   19.700   6.738E+00
   19.800   6.578E+00
   19.900   6.414E+00
   20.000   6.247E+00
   20.100   6.076E+00
   20.200   5.904E+00
   20.300   5.730E+00
   20.400   5.555E+00
   20.500   5.381E+00
   20.600   5.208E+00
   20.700   5.037E+00
   20.800   4.869E+00
   20.900   4.704E+00
   21.000   4.543E+00
   21.100   4.387E+00
   21.200   4.235E+00
   21.300   4.089E+00
   21.400   3.948E+00
   21.500   3.812E+00
   21.600   3.682E+00
   21.700   3.557E+00
   21.800   3.438E+00
   21.900   3.324E+00
   22.000   3.216E+00
   22.100   3.112E+00
   22.200   3.013E+00
   22.300   2.918E+00
   22.400   2.828E+00
   22.500   2.743E+00
   22.600   2.661E+00
   22.700   2.583E+00
   22.800   2.508E+00
   22.900   2.437E+00
   23.000   2.369E+00
   23.100   2.305E+00
   23.200   2.243E+00
   23.300   2.183E+00
   23.400   2.127E+00
   23.500   2.072E+00
   23.600   2.020E+00
   23.700   1.970E+00
   23.800   1.922E+00
   23.900   1.876E+00
   24.000   1.832E+00
   24.100   1.790E+00
   24.200   1.749E+00
   24.300   1.710E+00
   24.400   1.672E+00
   24.500   1.636E+00
   24.600   1.601E+00
   24.700   1.567E+00
   24.800   1.534E+00
   24.900   1.503E+00
   25.000   1.473E+00
   25.100   1.443E+00
   25.200   1.415E+00
   25.300   1.387E+00
   25.400   1.361E+00
   25.500   1.335E+00
   25.600   1.310E+00
   25.700   1.286E+00
   25.800   1.263E+00
   25.900   1.240E+00
   26.000   1.218E+00
   26.100   1.197E+00
   26.200   1.176E+00
   26.300   1.156E+00
   26.400   1.137E+00
   26.500   1.118E+00
   26.600   1.099E+00
   26.700   1.081E+00
   26.800   1.064E+00
   26.900   1.047E+00
   27.000   1.030E+00
   27.100   1.014E+00
   27.200   9.988E-01
   27.300   9.835E-01
   27.400   9.687E-01
   27.500   9.542E-01
   27.600   9.400E-01
   27.700   9.263E-01
   27.800   9.128E-01
   27.900   8.997E-01
   28.000   8.869E-01
   28.100   8.744E-01
   28.200   8.622E-01
   28.300   8.503E-01
   28.400   8.386E-01
   28.500   8.272E-01
   28.600   8.161E-01
   28.700   8.052E-01
   28.800   7.946E-01
   28.900   7.842E-01
   29.000   7.740E-01
   29.100   7.641E-01
   29.200   7.543E-01
   29.300   7.448E-01
   29.400   7.354E-01
   29.500   7.263E-01
   29.600   7.173E-01
   29.700   7.085E-01
   29.800   6.999E-01
   29.900   6.915E-01
   30.000   6.833E-01
 
 Z=  44 A= 115  D1M-QRPA-Inter
 E[MeV]  fQRPA[mb/MeV]
    0.100   4.019E-03
    0.200   8.064E-03
    0.300   1.212E-02
    0.400   1.620E-02
    0.500   2.030E-02
    0.600   2.442E-02
    0.700   2.855E-02
    0.800   3.270E-02
    0.900   3.685E-02
    1.000   4.099E-02
    1.100   4.512E-02
    1.200   4.922E-02
    1.300   5.328E-02
    1.400   5.731E-02
    1.500   6.130E-02
    1.600   6.524E-02
    1.700   6.916E-02
    1.800   7.305E-02
    1.900   7.693E-02
    2.000   8.081E-02
    2.100   8.471E-02
    2.200   8.866E-02
    2.300   9.266E-02
    2.400   9.674E-02
    2.500   1.009E-01
    2.600   1.052E-01
    2.700   1.097E-01
    2.800   1.143E-01
    2.900   1.191E-01
    3.000   1.241E-01
    3.100   1.293E-01
    3.200   1.348E-01
    3.300   1.405E-01
    3.400   1.465E-01
    3.500   1.527E-01
    3.600   1.593E-01
    3.700   1.662E-01
    3.800   1.735E-01
    3.900   1.811E-01
    4.000   1.892E-01
    4.100   1.976E-01
    4.200   2.065E-01
    4.300   2.158E-01
    4.400   2.256E-01
    4.500   2.359E-01
    4.600   2.467E-01
    4.700   2.581E-01
    4.800   2.701E-01
    4.900   2.826E-01
    5.000   2.959E-01
    5.100   3.097E-01
    5.200   3.243E-01
    5.300   3.396E-01
    5.400   3.556E-01
    5.500   3.724E-01
    5.600   3.901E-01
    5.700   4.086E-01
    5.800   4.279E-01
    5.900   4.482E-01
    6.000   4.694E-01
    6.100   4.917E-01
    6.200   5.149E-01
    6.300   5.392E-01
    6.400   5.646E-01
    6.500   5.911E-01
    6.600   6.188E-01
    6.700   6.477E-01
    6.800   6.779E-01
    6.900   7.093E-01
    7.000   7.420E-01
    7.100   7.761E-01
    7.200   8.115E-01
    7.300   8.484E-01
    7.400   8.866E-01
    7.500   9.263E-01
    7.600   9.675E-01
    7.700   1.010E+00
    7.800   1.054E+00
    7.900   1.100E+00
    8.000   1.147E+00
    8.100   1.196E+00
    8.200   1.246E+00
    8.300   1.297E+00
    8.400   1.350E+00
    8.500   1.405E+00
    8.600   1.461E+00
    8.700   1.519E+00
    8.800   1.579E+00
    8.900   1.640E+00
    9.000   1.704E+00
    9.100   1.769E+00
    9.200   1.837E+00
    9.300   1.906E+00
    9.400   1.979E+00
    9.500   2.053E+00
    9.600   2.131E+00
    9.700   2.212E+00
    9.800   2.295E+00
    9.900   2.383E+00
   10.000   2.474E+00
   10.100   2.568E+00
   10.200   2.667E+00
   10.300   2.771E+00
   10.400   2.879E+00
   10.500   2.993E+00
   10.600   3.111E+00
   10.700   3.236E+00
   10.800   3.366E+00
   10.900   3.503E+00
   11.000   3.647E+00
   11.100   3.797E+00
   11.200   3.955E+00
   11.300   4.120E+00
   11.400   4.293E+00
   11.500   4.474E+00
   11.600   4.664E+00
   11.700   4.862E+00
   11.800   5.070E+00
   11.900   5.287E+00
   12.000   5.514E+00
   12.100   5.751E+00
   12.200   5.999E+00
   12.300   6.257E+00
   12.400   6.526E+00
   12.500   6.806E+00
   12.600   7.096E+00
   12.700   7.397E+00
   12.800   7.708E+00
   12.900   8.028E+00
   13.000   8.357E+00
   13.100   8.694E+00
   13.200   9.036E+00
   13.300   9.383E+00
   13.400   9.732E+00
   13.500   1.008E+01
   13.600   1.043E+01
   13.700   1.077E+01
   13.800   1.111E+01
   13.900   1.144E+01
   14.000   1.176E+01
   14.100   1.206E+01
   14.200   1.235E+01
   14.300   1.262E+01
   14.400   1.287E+01
   14.500   1.310E+01
   14.600   1.331E+01
   14.700   1.350E+01
   14.800   1.367E+01
   14.900   1.382E+01
   15.000   1.394E+01
   15.100   1.405E+01
   15.200   1.413E+01
   15.300   1.419E+01
   15.400   1.424E+01
   15.500   1.427E+01
   15.600   1.428E+01
   15.700   1.428E+01
   15.800   1.426E+01
   15.900   1.422E+01
   16.000   1.418E+01
   16.100   1.411E+01
   16.200   1.404E+01
   16.300   1.395E+01
   16.400   1.384E+01
   16.500   1.372E+01
   16.600   1.359E+01
   16.700   1.344E+01
   16.800   1.328E+01
   16.900   1.310E+01
   17.000   1.291E+01
   17.100   1.271E+01
   17.200   1.250E+01
   17.300   1.228E+01
   17.400   1.205E+01
   17.500   1.181E+01
   17.600   1.158E+01
   17.700   1.134E+01
   17.800   1.109E+01
   17.900   1.085E+01
   18.000   1.062E+01
   18.100   1.038E+01
   18.200   1.015E+01
   18.300   9.918E+00
   18.400   9.693E+00
   18.500   9.473E+00
   18.600   9.256E+00
   18.700   9.043E+00
   18.800   8.834E+00
   18.900   8.627E+00
   19.000   8.423E+00
   19.100   8.221E+00
   19.200   8.020E+00
   19.300   7.820E+00
   19.400   7.621E+00
   19.500   7.422E+00
   19.600   7.223E+00
   19.700   7.025E+00
   19.800   6.827E+00
   19.900   6.630E+00
   20.000   6.434E+00
   20.100   6.239E+00
   20.200   6.047E+00
   20.300   5.856E+00
   20.400   5.669E+00
   20.500   5.485E+00
   20.600   5.305E+00
   20.700   5.130E+00
   20.800   4.959E+00
   20.900   4.794E+00
   21.000   4.633E+00
   21.100   4.478E+00
   21.200   4.329E+00
   21.300   4.185E+00
   21.400   4.047E+00
   21.500   3.915E+00
   21.600   3.788E+00
   21.700   3.666E+00
   21.800   3.550E+00
   21.900   3.439E+00
   22.000   3.332E+00
   22.100   3.231E+00
   22.200   3.134E+00
   22.300   3.041E+00
   22.400   2.952E+00
   22.500   2.867E+00
   22.600   2.786E+00
   22.700   2.709E+00
   22.800   2.635E+00
   22.900   2.564E+00
   23.000   2.496E+00
   23.100   2.431E+00
   23.200   2.368E+00
   23.300   2.309E+00
   23.400   2.251E+00
   23.500   2.196E+00
   23.600   2.143E+00
   23.700   2.092E+00
   23.800   2.043E+00
   23.900   1.996E+00
   24.000   1.951E+00
   24.100   1.907E+00
   24.200   1.865E+00
   24.300   1.825E+00
   24.400   1.786E+00
   24.500   1.748E+00
   24.600   1.712E+00
   24.700   1.677E+00
   24.800   1.643E+00
   24.900   1.610E+00
   25.000   1.578E+00
   25.100   1.547E+00
   25.200   1.518E+00
   25.300   1.489E+00
   25.400   1.461E+00
   25.500   1.434E+00
   25.600   1.408E+00
   25.700   1.382E+00
   25.800   1.358E+00
   25.900   1.334E+00
   26.000   1.311E+00
   26.100   1.288E+00
   26.200   1.266E+00
   26.300   1.245E+00
   26.400   1.224E+00
   26.500   1.204E+00
   26.600   1.184E+00
   26.700   1.165E+00
   26.800   1.147E+00
   26.900   1.129E+00
   27.000   1.111E+00
   27.100   1.094E+00
   27.200   1.077E+00
   27.300   1.061E+00
   27.400   1.045E+00
   27.500   1.029E+00
   27.600   1.014E+00
   27.700   9.995E-01
   27.800   9.851E-01
   27.900   9.710E-01
   28.000   9.573E-01
   28.100   9.438E-01
   28.200   9.307E-01
   28.300   9.179E-01
   28.400   9.054E-01
   28.500   8.932E-01
   28.600   8.812E-01
   28.700   8.695E-01
   28.800   8.581E-01
   28.900   8.469E-01
   29.000   8.359E-01
   29.100   8.252E-01
   29.200   8.147E-01
   29.300   8.044E-01
   29.400   7.943E-01
   29.500   7.844E-01
   29.600   7.748E-01
   29.700   7.653E-01
   29.800   7.560E-01
   29.900   7.469E-01
   30.000   7.380E-01
 
 Z=  44 A= 116  D1M-QRPA
   E[MeV]   fQRPA[mb/MeV]
    0.100   1.816E-02
    0.200   1.843E-02
    0.300   1.875E-02
    0.400   1.918E-02
    0.500   1.973E-02
    0.600   2.040E-02
    0.700   2.119E-02
    0.800   2.211E-02
    0.900   2.316E-02
    1.000   2.434E-02
    1.100   2.565E-02
    1.200   2.711E-02
    1.300   2.870E-02
    1.400   3.044E-02
    1.500   3.232E-02
    1.600   3.436E-02
    1.700   3.655E-02
    1.800   3.890E-02
    1.900   4.142E-02
    2.000   4.411E-02
    2.100   4.697E-02
    2.200   5.001E-02
    2.300   5.324E-02
    2.400   5.666E-02
    2.500   6.027E-02
    2.600   6.409E-02
    2.700   6.812E-02
    2.800   7.236E-02
    2.900   7.683E-02
    3.000   8.153E-02
    3.100   8.647E-02
    3.200   9.166E-02
    3.300   9.710E-02
    3.400   1.028E-01
    3.500   1.088E-01
    3.600   1.151E-01
    3.700   1.216E-01
    3.800   1.285E-01
    3.900   1.357E-01
    4.000   1.433E-01
    4.100   1.511E-01
    4.200   1.594E-01
    4.300   1.680E-01
    4.400   1.770E-01
    4.500   1.865E-01
    4.600   1.963E-01
    4.700   2.067E-01
    4.800   2.175E-01
    4.900   2.287E-01
    5.000   2.406E-01
    5.100   2.529E-01
    5.200   2.659E-01
    5.300   2.794E-01
    5.400   2.936E-01
    5.500   3.084E-01
    5.600   3.239E-01
    5.700   3.402E-01
    5.800   3.573E-01
    5.900   3.752E-01
    6.000   3.939E-01
    6.100   4.135E-01
    6.200   4.341E-01
    6.300   4.557E-01
    6.400   4.784E-01
    6.500   5.021E-01
    6.600   5.270E-01
    6.700   5.531E-01
    6.800   5.804E-01
    6.900   6.091E-01
    7.000   6.390E-01
    7.100   6.704E-01
    7.200   7.032E-01
    7.300   7.375E-01
    7.400   7.732E-01
    7.500   8.104E-01
    7.600   8.490E-01
    7.700   8.892E-01
    7.800   9.308E-01
    7.900   9.739E-01
    8.000   1.018E+00
    8.100   1.064E+00
    8.200   1.111E+00
    8.300   1.160E+00
    8.400   1.209E+00
    8.500   1.260E+00
    8.600   1.312E+00
    8.700   1.365E+00
    8.800   1.419E+00
    8.900   1.474E+00
    9.000   1.530E+00
    9.100   1.588E+00
    9.200   1.647E+00
    9.300   1.707E+00
    9.400   1.769E+00
    9.500   1.832E+00
    9.600   1.898E+00
    9.700   1.965E+00
    9.800   2.035E+00
    9.900   2.107E+00
   10.000   2.182E+00
   10.100   2.259E+00
   10.200   2.341E+00
   10.300   2.425E+00
   10.400   2.514E+00
   10.500   2.607E+00
   10.600   2.705E+00
   10.700   2.807E+00
   10.800   2.914E+00
   10.900   3.027E+00
   11.000   3.145E+00
   11.100   3.270E+00
   11.200   3.400E+00
   11.300   3.538E+00
   11.400   3.682E+00
   11.500   3.834E+00
   11.600   3.993E+00
   11.700   4.160E+00
   11.800   4.336E+00
   11.900   4.520E+00
   12.000   4.713E+00
   12.100   4.916E+00
   12.200   5.129E+00
   12.300   5.351E+00
   12.400   5.583E+00
   12.500   5.826E+00
   12.600   6.079E+00
   12.700   6.342E+00
   12.800   6.614E+00
   12.900   6.897E+00
   13.000   7.188E+00
   13.100   7.488E+00
   13.200   7.796E+00
   13.300   8.111E+00
   13.400   8.433E+00
   13.500   8.761E+00
   13.600   9.094E+00
   13.700   9.432E+00
   13.800   9.773E+00
   13.900   1.012E+01
   14.000   1.046E+01
   14.100   1.081E+01
   14.200   1.116E+01
   14.300   1.151E+01
   14.400   1.185E+01
   14.500   1.219E+01
   14.600   1.252E+01
   14.700   1.284E+01
   14.800   1.315E+01
   14.900   1.344E+01
   15.000   1.372E+01
   15.100   1.397E+01
   15.200   1.421E+01
   15.300   1.442E+01
   15.400   1.461E+01
   15.500   1.477E+01
   15.600   1.491E+01
   15.700   1.502E+01
   15.800   1.512E+01
   15.900   1.519E+01
   16.000   1.523E+01
   16.100   1.526E+01
   16.200   1.527E+01
   16.300   1.525E+01
   16.400   1.522E+01
   16.500   1.517E+01
   16.600   1.509E+01
   16.700   1.500E+01
   16.800   1.488E+01
   16.900   1.474E+01
   17.000   1.458E+01
   17.100   1.440E+01
   17.200   1.420E+01
   17.300   1.398E+01
   17.400   1.375E+01
   17.500   1.349E+01
   17.600   1.323E+01
   17.700   1.295E+01
   17.800   1.266E+01
   17.900   1.237E+01
   18.000   1.207E+01
   18.100   1.176E+01
   18.200   1.146E+01
   18.300   1.115E+01
   18.400   1.084E+01
   18.500   1.054E+01
   18.600   1.024E+01
   18.700   9.942E+00
   18.800   9.650E+00
   18.900   9.363E+00
   19.000   9.081E+00
   19.100   8.805E+00
   19.200   8.534E+00
   19.300   8.269E+00
   19.400   8.009E+00
   19.500   7.755E+00
   19.600   7.507E+00
   19.700   7.264E+00
   19.800   7.028E+00
   19.900   6.797E+00
   20.000   6.573E+00
   20.100   6.354E+00
   20.200   6.142E+00
   20.300   5.937E+00
   20.400   5.738E+00
   20.500   5.546E+00
   20.600   5.361E+00
   20.700   5.182E+00
   20.800   5.010E+00
   20.900   4.845E+00
   21.000   4.687E+00
   21.100   4.535E+00
   21.200   4.389E+00
   21.300   4.249E+00
   21.400   4.115E+00
   21.500   3.987E+00
   21.600   3.865E+00
   21.700   3.747E+00
   21.800   3.635E+00
   21.900   3.528E+00
   22.000   3.425E+00
   22.100   3.327E+00
   22.200   3.233E+00
   22.300   3.143E+00
   22.400   3.056E+00
   22.500   2.973E+00
   22.600   2.894E+00
   22.700   2.818E+00
   22.800   2.745E+00
   22.900   2.675E+00
   23.000   2.608E+00
   23.100   2.543E+00
   23.200   2.481E+00
   23.300   2.421E+00
   23.400   2.364E+00
   23.500   2.308E+00
   23.600   2.255E+00
   23.700   2.204E+00
   23.800   2.154E+00
   23.900   2.106E+00
   24.000   2.060E+00
   24.100   2.016E+00
   24.200   1.973E+00
   24.300   1.932E+00
   24.400   1.892E+00
   24.500   1.853E+00
   24.600   1.816E+00
   24.700   1.779E+00
   24.800   1.744E+00
   24.900   1.710E+00
   25.000   1.677E+00
   25.100   1.646E+00
   25.200   1.615E+00
   25.300   1.585E+00
   25.400   1.556E+00
   25.500   1.528E+00
   25.600   1.500E+00
   25.700   1.474E+00
   25.800   1.448E+00
   25.900   1.423E+00
   26.000   1.398E+00
   26.100   1.375E+00
   26.200   1.352E+00
   26.300   1.329E+00
   26.400   1.307E+00
   26.500   1.286E+00
   26.600   1.265E+00
   26.700   1.245E+00
   26.800   1.226E+00
   26.900   1.207E+00
   27.000   1.188E+00
   27.100   1.170E+00
   27.200   1.152E+00
   27.300   1.135E+00
   27.400   1.118E+00
   27.500   1.101E+00
   27.600   1.085E+00
   27.700   1.070E+00
   27.800   1.054E+00
   27.900   1.039E+00
   28.000   1.025E+00
   28.100   1.010E+00
   28.200   9.965E-01
   28.300   9.829E-01
   28.400   9.695E-01
   28.500   9.565E-01
   28.600   9.437E-01
   28.700   9.312E-01
   28.800   9.190E-01
   28.900   9.071E-01
   29.000   8.953E-01
   29.100   8.839E-01
   29.200   8.727E-01
   29.300   8.617E-01
   29.400   8.509E-01
   29.500   8.404E-01
   29.600   8.300E-01
   29.700   8.199E-01
   29.800   8.100E-01
   29.900   8.002E-01
   30.000   7.907E-01
 
 Z=  44 A= 117  D1M-QRPA-Inter
 E[MeV]  fQRPA[mb/MeV]
    0.100   1.302E-03
    0.200   2.623E-03
    0.300   3.971E-03
    0.400   5.357E-03
    0.500   6.795E-03
    0.600   8.296E-03
    0.700   9.872E-03
    0.800   1.153E-02
    0.900   1.329E-02
    1.000   1.516E-02
    1.100   1.714E-02
    1.200   1.924E-02
    1.300   2.148E-02
    1.400   2.386E-02
    1.500   2.639E-02
    1.600   2.908E-02
    1.700   3.192E-02
    1.800   3.494E-02
    1.900   3.814E-02
    2.000   4.153E-02
    2.100   4.510E-02
    2.200   4.888E-02
    2.300   5.287E-02
    2.400   5.707E-02
    2.500   6.149E-02
    2.600   6.615E-02
    2.700   7.104E-02
    2.800   7.619E-02
    2.900   8.159E-02
    3.000   8.726E-02
    3.100   9.321E-02
    3.200   9.944E-02
    3.300   1.060E-01
    3.400   1.128E-01
    3.500   1.200E-01
    3.600   1.275E-01
    3.700   1.354E-01
    3.800   1.436E-01
    3.900   1.522E-01
    4.000   1.612E-01
    4.100   1.706E-01
    4.200   1.804E-01
    4.300   1.907E-01
    4.400   2.015E-01
    4.500   2.127E-01
    4.600   2.245E-01
    4.700   2.368E-01
    4.800   2.497E-01
    4.900   2.632E-01
    5.000   2.773E-01
    5.100   2.920E-01
    5.200   3.075E-01
    5.300   3.237E-01
    5.400   3.406E-01
    5.500   3.583E-01
    5.600   3.768E-01
    5.700   3.963E-01
    5.800   4.166E-01
    5.900   4.379E-01
    6.000   4.602E-01
    6.100   4.836E-01
    6.200   5.081E-01
    6.300   5.337E-01
    6.400   5.605E-01
    6.500   5.886E-01
    6.600   6.179E-01
    6.700   6.486E-01
    6.800   6.806E-01
    6.900   7.140E-01
    7.000   7.488E-01
    7.100   7.851E-01
    7.200   8.229E-01
    7.300   8.621E-01
    7.400   9.028E-01
    7.500   9.449E-01
    7.600   9.885E-01
    7.700   1.034E+00
    7.800   1.080E+00
    7.900   1.128E+00
    8.000   1.177E+00
    8.100   1.227E+00
    8.200   1.279E+00
    8.300   1.332E+00
    8.400   1.386E+00
    8.500   1.442E+00
    8.600   1.499E+00
    8.700   1.557E+00
    8.800   1.616E+00
    8.900   1.677E+00
    9.000   1.739E+00
    9.100   1.803E+00
    9.200   1.868E+00
    9.300   1.936E+00
    9.400   2.005E+00
    9.500   2.076E+00
    9.600   2.150E+00
    9.700   2.226E+00
    9.800   2.304E+00
    9.900   2.386E+00
   10.000   2.471E+00
   10.100   2.559E+00
   10.200   2.651E+00
   10.300   2.747E+00
   10.400   2.847E+00
   10.500   2.952E+00
   10.600   3.061E+00
   10.700   3.175E+00
   10.800   3.295E+00
   10.900   3.420E+00
   11.000   3.550E+00
   11.100   3.687E+00
   11.200   3.831E+00
   11.300   3.981E+00
   11.400   4.138E+00
   11.500   4.302E+00
   11.600   4.474E+00
   11.700   4.654E+00
   11.800   4.842E+00
   11.900   5.039E+00
   12.000   5.244E+00
   12.100   5.459E+00
   12.200   5.682E+00
   12.300   5.914E+00
   12.400   6.155E+00
   12.500   6.406E+00
   12.600   6.665E+00
   12.700   6.932E+00
   12.800   7.208E+00
   12.900   7.491E+00
   13.000   7.781E+00
   13.100   8.078E+00
   13.200   8.381E+00
   13.300   8.689E+00
   13.400   9.002E+00
   13.500   9.318E+00
   13.600   9.638E+00
   13.700   9.959E+00
   13.800   1.028E+01
   13.900   1.060E+01
   14.000   1.093E+01
   14.100   1.124E+01
   14.200   1.156E+01
   14.300   1.187E+01
   14.400   1.217E+01
   14.500   1.246E+01
   14.600   1.274E+01
   14.700   1.301E+01
   14.800   1.326E+01
   14.900   1.349E+01
   15.000   1.370E+01
   15.100   1.390E+01
   15.200   1.407E+01
   15.300   1.422E+01
   15.400   1.435E+01
   15.500   1.446E+01
   15.600   1.455E+01
   15.700   1.463E+01
   15.800   1.468E+01
   15.900   1.472E+01
   16.000   1.475E+01
   16.100   1.476E+01
   16.200   1.476E+01
   16.300   1.475E+01
   16.400   1.472E+01
   16.500   1.468E+01
   16.600   1.462E+01
   16.700   1.455E+01
   16.800   1.446E+01
   16.900   1.435E+01
   17.000   1.423E+01
   17.100   1.409E+01
   17.200   1.393E+01
   17.300   1.375E+01
   17.400   1.356E+01
   17.500   1.335E+01
   17.600   1.313E+01
   17.700   1.289E+01
   17.800   1.264E+01
   17.900   1.238E+01
   18.000   1.211E+01
   18.100   1.183E+01
   18.200   1.155E+01
   18.300   1.127E+01
   18.400   1.098E+01
   18.500   1.070E+01
   18.600   1.041E+01
   18.700   1.013E+01
   18.800   9.846E+00
   18.900   9.570E+00
   19.000   9.297E+00
   19.100   9.029E+00
   19.200   8.766E+00
   19.300   8.508E+00
   19.400   8.256E+00
   19.500   8.009E+00
   19.600   7.767E+00
   19.700   7.531E+00
   19.800   7.300E+00
   19.900   7.076E+00
   20.000   6.856E+00
   20.100   6.643E+00
   20.200   6.435E+00
   20.300   6.233E+00
   20.400   6.036E+00
   20.500   5.846E+00
   20.600   5.661E+00
   20.700   5.483E+00
   20.800   5.310E+00
   20.900   5.144E+00
   21.000   4.983E+00
   21.100   4.828E+00
   21.200   4.678E+00
   21.300   4.535E+00
   21.400   4.397E+00
   21.500   4.264E+00
   21.600   4.137E+00
   21.700   4.014E+00
   21.800   3.897E+00
   21.900   3.784E+00
   22.000   3.676E+00
   22.100   3.572E+00
   22.200   3.473E+00
   22.300   3.377E+00
   22.400   3.286E+00
   22.500   3.198E+00
   22.600   3.114E+00
   22.700   3.032E+00
   22.800   2.955E+00
   22.900   2.880E+00
   23.000   2.808E+00
   23.100   2.739E+00
   23.200   2.672E+00
   23.300   2.608E+00
   23.400   2.547E+00
   23.500   2.487E+00
   23.600   2.430E+00
   23.700   2.375E+00
   23.800   2.322E+00
   23.900   2.271E+00
   24.000   2.222E+00
   24.100   2.174E+00
   24.200   2.128E+00
   24.300   2.083E+00
   24.400   2.040E+00
   24.500   1.999E+00
   24.600   1.958E+00
   24.700   1.919E+00
   24.800   1.882E+00
   24.900   1.845E+00
   25.000   1.810E+00
   25.100   1.776E+00
   25.200   1.742E+00
   25.300   1.710E+00
   25.400   1.679E+00
   25.500   1.649E+00
   25.600   1.619E+00
   25.700   1.591E+00
   25.800   1.563E+00
   25.900   1.536E+00
   26.000   1.509E+00
   26.100   1.484E+00
   26.200   1.459E+00
   26.300   1.435E+00
   26.400   1.412E+00
   26.500   1.389E+00
   26.600   1.366E+00
   26.700   1.345E+00
   26.800   1.324E+00
   26.900   1.303E+00
   27.000   1.283E+00
   27.100   1.263E+00
   27.200   1.244E+00
   27.300   1.226E+00
   27.400   1.208E+00
   27.500   1.190E+00
   27.600   1.173E+00
   27.700   1.156E+00
   27.800   1.139E+00
   27.900   1.123E+00
   28.000   1.107E+00
   28.100   1.092E+00
   28.200   1.077E+00
   28.300   1.062E+00
   28.400   1.048E+00
   28.500   1.034E+00
   28.600   1.020E+00
   28.700   1.007E+00
   28.800   9.933E-01
   28.900   9.805E-01
   29.000   9.678E-01
   29.100   9.555E-01
   29.200   9.434E-01
   29.300   9.316E-01
   29.400   9.200E-01
   29.500   9.086E-01
   29.600   8.974E-01
   29.700   8.865E-01
   29.800   8.758E-01
   29.900   8.653E-01
   30.000   8.550E-01
 
 Z=  44 A= 118  D1M-QRPA
   E[MeV]   fQRPA[mb/MeV]
    0.100   9.303E-05
    0.200   3.723E-04
    0.300   8.381E-04
    0.400   1.491E-03
    0.500   2.332E-03
    0.600   3.363E-03
    0.700   4.584E-03
    0.800   5.997E-03
    0.900   7.605E-03
    1.000   9.409E-03
    1.100   1.141E-02
    1.200   1.362E-02
    1.300   1.603E-02
    1.400   1.865E-02
    1.500   2.148E-02
    1.600   2.452E-02
    1.700   2.779E-02
    1.800   3.128E-02
    1.900   3.501E-02
    2.000   3.897E-02
    2.100   4.317E-02
    2.200   4.762E-02
    2.300   5.232E-02
    2.400   5.729E-02
    2.500   6.253E-02
    2.600   6.804E-02
    2.700   7.385E-02
    2.800   7.995E-02
    2.900   8.636E-02
    3.000   9.308E-02
    3.100   1.001E-01
    3.200   1.075E-01
    3.300   1.153E-01
    3.400   1.234E-01
    3.500   1.319E-01
    3.600   1.408E-01
    3.700   1.501E-01
    3.800   1.599E-01
    3.900   1.701E-01
    4.000   1.807E-01
    4.100   1.919E-01
    4.200   2.035E-01
    4.300   2.158E-01
    4.400   2.285E-01
    4.500   2.419E-01
    4.600   2.559E-01
    4.700   2.705E-01
    4.800   2.858E-01
    4.900   3.018E-01
    5.000   3.185E-01
    5.100   3.361E-01
    5.200   3.544E-01
    5.300   3.737E-01
    5.400   3.938E-01
    5.500   4.149E-01
    5.600   4.369E-01
    5.700   4.600E-01
    5.800   4.842E-01
    5.900   5.095E-01
    6.000   5.360E-01
    6.100   5.637E-01
    6.200   5.927E-01
    6.300   6.230E-01
    6.400   6.546E-01
    6.500   6.876E-01
    6.600   7.221E-01
    6.700   7.580E-01
    6.800   7.954E-01
    6.900   8.342E-01
    7.000   8.746E-01
    7.100   9.164E-01
    7.200   9.597E-01
    7.300   1.004E+00
    7.400   1.051E+00
    7.500   1.098E+00
    7.600   1.147E+00
    7.700   1.197E+00
    7.800   1.249E+00
    7.900   1.302E+00
    8.000   1.356E+00
    8.100   1.411E+00
    8.200   1.468E+00
    8.300   1.526E+00
    8.400   1.585E+00
    8.500   1.645E+00
    8.600   1.707E+00
    8.700   1.770E+00
    8.800   1.835E+00
    8.900   1.902E+00
    9.000   1.970E+00
    9.100   2.040E+00
    9.200   2.112E+00
    9.300   2.187E+00
    9.400   2.264E+00
    9.500   2.344E+00
    9.600   2.427E+00
    9.700   2.512E+00
    9.800   2.601E+00
    9.900   2.694E+00
   10.000   2.790E+00
   10.100   2.890E+00
   10.200   2.993E+00
   10.300   3.101E+00
   10.400   3.214E+00
   10.500   3.331E+00
   10.600   3.453E+00
   10.700   3.580E+00
   10.800   3.713E+00
   10.900   3.851E+00
   11.000   3.994E+00
   11.100   4.145E+00
   11.200   4.301E+00
   11.300   4.464E+00
   11.400   4.634E+00
   11.500   4.812E+00
   11.600   4.997E+00
   11.700   5.190E+00
   11.800   5.390E+00
   11.900   5.599E+00
   12.000   5.816E+00
   12.100   6.041E+00
   12.200   6.274E+00
   12.300   6.515E+00
   12.400   6.763E+00
   12.500   7.019E+00
   12.600   7.282E+00
   12.700   7.552E+00
   12.800   7.828E+00
   12.900   8.109E+00
   13.000   8.395E+00
   13.100   8.686E+00
   13.200   8.980E+00
   13.300   9.278E+00
   13.400   9.577E+00
   13.500   9.878E+00
   13.600   1.018E+01
   13.700   1.048E+01
   13.800   1.078E+01
   13.900   1.108E+01
   14.000   1.137E+01
   14.100   1.166E+01
   14.200   1.193E+01
   14.300   1.220E+01
   14.400   1.246E+01
   14.500   1.270E+01
   14.600   1.293E+01
   14.700   1.313E+01
   14.800   1.332E+01
   14.900   1.349E+01
   15.000   1.364E+01
   15.100   1.377E+01
   15.200   1.389E+01
   15.300   1.398E+01
   15.400   1.405E+01
   15.500   1.411E+01
   15.600   1.416E+01
   15.700   1.419E+01
   15.800   1.421E+01
   15.900   1.423E+01
   16.000   1.423E+01
   16.100   1.423E+01
   16.200   1.422E+01
   16.300   1.421E+01
   16.400   1.419E+01
   16.500   1.415E+01
   16.600   1.412E+01
   16.700   1.407E+01
   16.800   1.400E+01
   16.900   1.393E+01
   17.000   1.384E+01
   17.100   1.374E+01
   17.200   1.362E+01
   17.300   1.348E+01
   17.400   1.333E+01
   17.500   1.317E+01
   17.600   1.298E+01
   17.700   1.278E+01
   17.800   1.257E+01
   17.900   1.234E+01
   18.000   1.211E+01
   18.100   1.186E+01
   18.200   1.161E+01
   18.300   1.135E+01
   18.400   1.108E+01
   18.500   1.082E+01
   18.600   1.055E+01
   18.700   1.028E+01
   18.800   1.001E+01
   18.900   9.748E+00
   19.000   9.486E+00
   19.100   9.228E+00
   19.200   8.974E+00
   19.300   8.726E+00
   19.400   8.482E+00
   19.500   8.243E+00
   19.600   8.009E+00
   19.700   7.781E+00
   19.800   7.558E+00
   19.900   7.341E+00
   20.000   7.128E+00
   20.100   6.921E+00
   20.200   6.719E+00
   20.300   6.521E+00
   20.400   6.329E+00
   20.500   6.141E+00
   20.600   5.959E+00
   20.700   5.782E+00
   20.800   5.609E+00
   20.900   5.442E+00
   21.000   5.280E+00
   21.100   5.123E+00
   21.200   4.971E+00
   21.300   4.824E+00
   21.400   4.682E+00
   21.500   4.545E+00
   21.600   4.413E+00
   21.700   4.286E+00
   21.800   4.163E+00
   21.900   4.046E+00
   22.000   3.932E+00
   22.100   3.823E+00
   22.200   3.719E+00
   22.300   3.618E+00
   22.400   3.521E+00
   22.500   3.428E+00
   22.600   3.338E+00
   22.700   3.252E+00
   22.800   3.170E+00
   22.900   3.090E+00
   23.000   3.014E+00
   23.100   2.940E+00
   23.200   2.869E+00
   23.300   2.801E+00
   23.400   2.735E+00
   23.500   2.672E+00
   23.600   2.611E+00
   23.700   2.552E+00
   23.800   2.495E+00
   23.900   2.440E+00
   24.000   2.387E+00
   24.100   2.336E+00
   24.200   2.287E+00
   24.300   2.239E+00
   24.400   2.193E+00
   24.500   2.148E+00
   24.600   2.105E+00
   24.700   2.064E+00
   24.800   2.023E+00
   24.900   1.984E+00
   25.000   1.946E+00
   25.100   1.909E+00
   25.200   1.874E+00
   25.300   1.839E+00
   25.400   1.806E+00
   25.500   1.773E+00
   25.600   1.742E+00
   25.700   1.711E+00
   25.800   1.681E+00
   25.900   1.652E+00
   26.000   1.624E+00
   26.100   1.597E+00
   26.200   1.570E+00
   26.300   1.544E+00
   26.400   1.519E+00
   26.500   1.494E+00
   26.600   1.471E+00
   26.700   1.447E+00
   26.800   1.425E+00
   26.900   1.403E+00
   27.000   1.381E+00
   27.100   1.360E+00
   27.200   1.340E+00
   27.300   1.320E+00
   27.400   1.300E+00
   27.500   1.281E+00
   27.600   1.262E+00
   27.700   1.244E+00
   27.800   1.227E+00
   27.900   1.209E+00
   28.000   1.192E+00
   28.100   1.176E+00
   28.200   1.160E+00
   28.300   1.144E+00
   28.400   1.129E+00
   28.500   1.113E+00
   28.600   1.099E+00
   28.700   1.084E+00
   28.800   1.070E+00
   28.900   1.056E+00
   29.000   1.043E+00
   29.100   1.029E+00
   29.200   1.016E+00
   29.300   1.004E+00
   29.400   9.913E-01
   29.500   9.791E-01
   29.600   9.671E-01
   29.700   9.554E-01
   29.800   9.439E-01
   29.900   9.326E-01
   30.000   9.216E-01
 
