 Z=  47 A= 107  D1M-QRPA-Inter
 E[MeV]  fQRPA[mb/MeV]
    0.100   1.425E-04
    0.200   5.680E-04
    0.300   1.271E-03
    0.400   2.242E-03
    0.500   3.471E-03
    0.600   4.943E-03
    0.700   6.646E-03
    0.800   8.566E-03
    0.900   1.069E-02
    1.000   1.301E-02
    1.100   1.550E-02
    1.200   1.818E-02
    1.300   2.102E-02
    1.400   2.402E-02
    1.500   2.719E-02
    1.600   3.051E-02
    1.700   3.400E-02
    1.800   3.764E-02
    1.900   4.145E-02
    2.000   4.543E-02
    2.100   4.957E-02
    2.200   5.390E-02
    2.300   5.840E-02
    2.400   6.310E-02
    2.500   6.799E-02
    2.600   7.308E-02
    2.700   7.838E-02
    2.800   8.391E-02
    2.900   8.966E-02
    3.000   9.564E-02
    3.100   1.019E-01
    3.200   1.084E-01
    3.300   1.151E-01
    3.400   1.221E-01
    3.500   1.294E-01
    3.600   1.371E-01
    3.700   1.450E-01
    3.800   1.532E-01
    3.900   1.618E-01
    4.000   1.707E-01
    4.100   1.799E-01
    4.200   1.895E-01
    4.300   1.995E-01
    4.400   2.099E-01
    4.500   2.208E-01
    4.600   2.320E-01
    4.700   2.437E-01
    4.800   2.558E-01
    4.900   2.684E-01
    5.000   2.816E-01
    5.100   2.952E-01
    5.200   3.094E-01
    5.300   3.241E-01
    5.400   3.394E-01
    5.500   3.553E-01
    5.600   3.718E-01
    5.700   3.890E-01
    5.800   4.069E-01
    5.900   4.255E-01
    6.000   4.448E-01
    6.100   4.648E-01
    6.200   4.857E-01
    6.300   5.074E-01
    6.400   5.300E-01
    6.500   5.535E-01
    6.600   5.779E-01
    6.700   6.033E-01
    6.800   6.298E-01
    6.900   6.572E-01
    7.000   6.858E-01
    7.100   7.156E-01
    7.200   7.465E-01
    7.300   7.787E-01
    7.400   8.122E-01
    7.500   8.470E-01
    7.600   8.833E-01
    7.700   9.209E-01
    7.800   9.601E-01
    7.900   1.001E+00
    8.000   1.043E+00
    8.100   1.087E+00
    8.200   1.133E+00
    8.300   1.181E+00
    8.400   1.231E+00
    8.500   1.282E+00
    8.600   1.336E+00
    8.700   1.391E+00
    8.800   1.449E+00
    8.900   1.510E+00
    9.000   1.572E+00
    9.100   1.638E+00
    9.200   1.705E+00
    9.300   1.776E+00
    9.400   1.849E+00
    9.500   1.925E+00
    9.600   2.005E+00
    9.700   2.087E+00
    9.800   2.173E+00
    9.900   2.262E+00
   10.000   2.355E+00
   10.100   2.451E+00
   10.200   2.551E+00
   10.300   2.656E+00
   10.400   2.764E+00
   10.500   2.877E+00
   10.600   2.994E+00
   10.700   3.116E+00
   10.800   3.242E+00
   10.900   3.374E+00
   11.000   3.510E+00
   11.100   3.652E+00
   11.200   3.799E+00
   11.300   3.951E+00
   11.400   4.108E+00
   11.500   4.272E+00
   11.600   4.440E+00
   11.700   4.615E+00
   11.800   4.795E+00
   11.900   4.980E+00
   12.000   5.171E+00
   12.100   5.367E+00
   12.200   5.568E+00
   12.300   5.774E+00
   12.400   5.984E+00
   12.500   6.199E+00
   12.600   6.417E+00
   12.700   6.639E+00
   12.800   6.863E+00
   12.900   7.090E+00
   13.000   7.317E+00
   13.100   7.546E+00
   13.200   7.774E+00
   13.300   8.001E+00
   13.400   8.226E+00
   13.500   8.448E+00
   13.600   8.667E+00
   13.700   8.881E+00
   13.800   9.089E+00
   13.900   9.291E+00
   14.000   9.486E+00
   14.100   9.673E+00
   14.200   9.851E+00
   14.300   1.002E+01
   14.400   1.018E+01
   14.500   1.033E+01
   14.600   1.047E+01
   14.700   1.059E+01
   14.800   1.071E+01
   14.900   1.081E+01
   15.000   1.090E+01
   15.100   1.098E+01
   15.200   1.104E+01
   15.300   1.109E+01
   15.400   1.113E+01
   15.500   1.115E+01
   15.600   1.116E+01
   15.700   1.116E+01
   15.800   1.114E+01
   15.900   1.110E+01
   16.000   1.106E+01
   16.100   1.099E+01
   16.200   1.092E+01
   16.300   1.083E+01
   16.400   1.072E+01
   16.500   1.061E+01
   16.600   1.048E+01
   16.700   1.033E+01
   16.800   1.018E+01
   16.900   1.002E+01
   17.000   9.848E+00
   17.100   9.668E+00
   17.200   9.482E+00
   17.300   9.289E+00
   17.400   9.092E+00
   17.500   8.891E+00
   17.600   8.687E+00
   17.700   8.481E+00
   17.800   8.275E+00
   17.900   8.068E+00
   18.000   7.863E+00
   18.100   7.659E+00
   18.200   7.457E+00
   18.300   7.257E+00
   18.400   7.061E+00
   18.500   6.869E+00
   18.600   6.680E+00
   18.700   6.496E+00
   18.800   6.316E+00
   18.900   6.141E+00
   19.000   5.970E+00
   19.100   5.804E+00
   19.200   5.643E+00
   19.300   5.487E+00
   19.400   5.336E+00
   19.500   5.190E+00
   19.600   5.048E+00
   19.700   4.912E+00
   19.800   4.779E+00
   19.900   4.651E+00
   20.000   4.528E+00
   20.100   4.409E+00
   20.200   4.293E+00
   20.300   4.182E+00
   20.400   4.075E+00
   20.500   3.971E+00
   20.600   3.871E+00
   20.700   3.775E+00
   20.800   3.682E+00
   20.900   3.592E+00
   21.000   3.505E+00
   21.100   3.421E+00
   21.200   3.340E+00
   21.300   3.262E+00
   21.400   3.186E+00
   21.500   3.113E+00
   21.600   3.042E+00
   21.700   2.974E+00
   21.800   2.908E+00
   21.900   2.844E+00
   22.000   2.782E+00
   22.100   2.723E+00
   22.200   2.665E+00
   22.300   2.609E+00
   22.400   2.554E+00
   22.500   2.502E+00
   22.600   2.451E+00
   22.700   2.402E+00
   22.800   2.354E+00
   22.900   2.307E+00
   23.000   2.262E+00
   23.100   2.219E+00
   23.200   2.176E+00
   23.300   2.135E+00
   23.400   2.095E+00
   23.500   2.056E+00
   23.600   2.019E+00
   23.700   1.982E+00
   23.800   1.946E+00
   23.900   1.912E+00
   24.000   1.878E+00
   24.100   1.845E+00
   24.200   1.814E+00
   24.300   1.783E+00
   24.400   1.752E+00
   24.500   1.723E+00
   24.600   1.694E+00
   24.700   1.667E+00
   24.800   1.639E+00
   24.900   1.613E+00
   25.000   1.587E+00
   25.100   1.562E+00
   25.200   1.538E+00
   25.300   1.514E+00
   25.400   1.490E+00
   25.500   1.468E+00
   25.600   1.445E+00
   25.700   1.424E+00
   25.800   1.402E+00
   25.900   1.382E+00
   26.000   1.362E+00
   26.100   1.342E+00
   26.200   1.323E+00
   26.300   1.304E+00
   26.400   1.285E+00
   26.500   1.267E+00
   26.600   1.250E+00
   26.700   1.233E+00
   26.800   1.216E+00
   26.900   1.199E+00
   27.000   1.183E+00
   27.100   1.167E+00
   27.200   1.152E+00
   27.300   1.137E+00
   27.400   1.122E+00
   27.500   1.107E+00
   27.600   1.093E+00
   27.700   1.079E+00
   27.800   1.066E+00
   27.900   1.052E+00
   28.000   1.039E+00
   28.100   1.026E+00
   28.200   1.014E+00
   28.300   1.002E+00
   28.400   9.894E-01
   28.500   9.776E-01
   28.600   9.659E-01
   28.700   9.545E-01
   28.800   9.433E-01
   28.900   9.323E-01
   29.000   9.215E-01
   29.100   9.109E-01
   29.200   9.005E-01
   29.300   8.903E-01
   29.400   8.803E-01
   29.500   8.705E-01
   29.600   8.608E-01
   29.700   8.513E-01
   29.800   8.420E-01
   29.900   8.328E-01
   30.000   8.238E-01
 
 Z=  47 A= 113  D1M-QRPA-Inter
 E[MeV]  fQRPA[mb/MeV]
    0.100   2.812E-04
    0.200   1.126E-03
    0.300   2.537E-03
    0.400   4.521E-03
    0.500   7.084E-03
    0.600   1.023E-02
    0.700   1.398E-02
    0.800   1.833E-02
    0.900   2.329E-02
    1.000   2.887E-02
    1.100   3.506E-02
    1.200   4.186E-02
    1.300   4.925E-02
    1.400   5.722E-02
    1.500   6.572E-02
    1.600   7.472E-02
    1.700   8.415E-02
    1.800   9.396E-02
    1.900   1.041E-01
    2.000   1.144E-01
    2.100   1.248E-01
    2.200   1.352E-01
    2.300   1.456E-01
    2.400   1.557E-01
    2.500   1.656E-01
    2.600   1.751E-01
    2.700   1.842E-01
    2.800   1.929E-01
    2.900   2.010E-01
    3.000   2.086E-01
    3.100   2.156E-01
    3.200   2.221E-01
    3.300   2.281E-01
    3.400   2.337E-01
    3.500   2.388E-01
    3.600   2.435E-01
    3.700   2.480E-01
    3.800   2.522E-01
    3.900   2.562E-01
    4.000   2.600E-01
    4.100   2.638E-01
    4.200   2.675E-01
    4.300   2.712E-01
    4.400   2.750E-01
    4.500   2.788E-01
    4.600   2.828E-01
    4.700   2.870E-01
    4.800   2.913E-01
    4.900   2.959E-01
    5.000   3.007E-01
    5.100   3.058E-01
    5.200   3.112E-01
    5.300   3.170E-01
    5.400   3.231E-01
    5.500   3.295E-01
    5.600   3.364E-01
    5.700   3.438E-01
    5.800   3.515E-01
    5.900   3.598E-01
    6.000   3.686E-01
    6.100   3.779E-01
    6.200   3.878E-01
    6.300   3.983E-01
    6.400   4.094E-01
    6.500   4.212E-01
    6.600   4.337E-01
    6.700   4.470E-01
    6.800   4.610E-01
    6.900   4.758E-01
    7.000   4.915E-01
    7.100   5.080E-01
    7.200   5.255E-01
    7.300   5.440E-01
    7.400   5.635E-01
    7.500   5.840E-01
    7.600   6.056E-01
    7.700   6.283E-01
    7.800   6.522E-01
    7.900   6.773E-01
    8.000   7.036E-01
    8.100   7.312E-01
    8.200   7.600E-01
    8.300   7.902E-01
    8.400   8.216E-01
    8.500   8.545E-01
    8.600   8.886E-01
    8.700   9.242E-01
    8.800   9.612E-01
    8.900   9.995E-01
    9.000   1.039E+00
    9.100   1.081E+00
    9.200   1.124E+00
    9.300   1.168E+00
    9.400   1.214E+00
    9.500   1.262E+00
    9.600   1.312E+00
    9.700   1.364E+00
    9.800   1.418E+00
    9.900   1.474E+00
   10.000   1.533E+00
   10.100   1.594E+00
   10.200   1.658E+00
   10.300   1.725E+00
   10.400   1.795E+00
   10.500   1.868E+00
   10.600   1.945E+00
   10.700   2.025E+00
   10.800   2.109E+00
   10.900   2.198E+00
   11.000   2.290E+00
   11.100   2.387E+00
   11.200   2.489E+00
   11.300   2.595E+00
   11.400   2.707E+00
   11.500   2.824E+00
   11.600   2.947E+00
   11.700   3.076E+00
   11.800   3.211E+00
   11.900   3.353E+00
   12.000   3.503E+00
   12.100   3.660E+00
   12.200   3.825E+00
   12.300   3.998E+00
   12.400   4.181E+00
   12.500   4.373E+00
   12.600   4.575E+00
   12.700   4.787E+00
   12.800   5.011E+00
   12.900   5.245E+00
   13.000   5.492E+00
   13.100   5.750E+00
   13.200   6.021E+00
   13.300   6.304E+00
   13.400   6.599E+00
   13.500   6.907E+00
   13.600   7.227E+00
   13.700   7.558E+00
   13.800   7.899E+00
   13.900   8.250E+00
   14.000   8.609E+00
   14.100   8.974E+00
   14.200   9.342E+00
   14.300   9.712E+00
   14.400   1.008E+01
   14.500   1.044E+01
   14.600   1.080E+01
   14.700   1.114E+01
   14.800   1.147E+01
   14.900   1.178E+01
   15.000   1.206E+01
   15.100   1.232E+01
   15.200   1.256E+01
   15.300   1.277E+01
   15.400   1.295E+01
   15.500   1.310E+01
   15.600   1.323E+01
   15.700   1.333E+01
   15.800   1.341E+01
   15.900   1.347E+01
   16.000   1.351E+01
   16.100   1.353E+01
   16.200   1.353E+01
   16.300   1.353E+01
   16.400   1.351E+01
   16.500   1.349E+01
   16.600   1.345E+01
   16.700   1.340E+01
   16.800   1.334E+01
   16.900   1.327E+01
   17.000   1.319E+01
   17.100   1.309E+01
   17.200   1.298E+01
   17.300   1.285E+01
   17.400   1.271E+01
   17.500   1.255E+01
   17.600   1.237E+01
   17.700   1.218E+01
   17.800   1.197E+01
   17.900   1.175E+01
   18.000   1.151E+01
   18.100   1.126E+01
   18.200   1.100E+01
   18.300   1.074E+01
   18.400   1.046E+01
   18.500   1.018E+01
   18.600   9.903E+00
   18.700   9.619E+00
   18.800   9.336E+00
   18.900   9.052E+00
   19.000   8.771E+00
   19.100   8.492E+00
   19.200   8.217E+00
   19.300   7.946E+00
   19.400   7.679E+00
   19.500   7.416E+00
   19.600   7.159E+00
   19.700   6.908E+00
   19.800   6.662E+00
   19.900   6.423E+00
   20.000   6.190E+00
   20.100   5.964E+00
   20.200   5.744E+00
   20.300   5.532E+00
   20.400   5.327E+00
   20.500   5.129E+00
   20.600   4.938E+00
   20.700   4.756E+00
   20.800   4.580E+00
   20.900   4.413E+00
   21.000   4.252E+00
   21.100   4.099E+00
   21.200   3.953E+00
   21.300   3.813E+00
   21.400   3.681E+00
   21.500   3.554E+00
   21.600   3.434E+00
   21.700   3.319E+00
   21.800   3.210E+00
   21.900   3.106E+00
   22.000   3.006E+00
   22.100   2.912E+00
   22.200   2.822E+00
   22.300   2.736E+00
   22.400   2.654E+00
   22.500   2.576E+00
   22.600   2.502E+00
   22.700   2.431E+00
   22.800   2.363E+00
   22.900   2.298E+00
   23.000   2.235E+00
   23.100   2.176E+00
   23.200   2.119E+00
   23.300   2.064E+00
   23.400   2.011E+00
   23.500   1.961E+00
   23.600   1.913E+00
   23.700   1.866E+00
   23.800   1.821E+00
   23.900   1.778E+00
   24.000   1.737E+00
   24.100   1.697E+00
   24.200   1.659E+00
   24.300   1.622E+00
   24.400   1.587E+00
   24.500   1.552E+00
   24.600   1.519E+00
   24.700   1.487E+00
   24.800   1.456E+00
   24.900   1.426E+00
   25.000   1.397E+00
   25.100   1.369E+00
   25.200   1.342E+00
   25.300   1.316E+00
   25.400   1.291E+00
   25.500   1.266E+00
   25.600   1.243E+00
   25.700   1.220E+00
   25.800   1.197E+00
   25.900   1.176E+00
   26.000   1.154E+00
   26.100   1.134E+00
   26.200   1.114E+00
   26.300   1.095E+00
   26.400   1.076E+00
   26.500   1.058E+00
   26.600   1.040E+00
   26.700   1.023E+00
   26.800   1.006E+00
   26.900   9.898E-01
   27.000   9.740E-01
   27.100   9.585E-01
   27.200   9.434E-01
   27.300   9.287E-01
   27.400   9.144E-01
   27.500   9.004E-01
   27.600   8.868E-01
   27.700   8.735E-01
   27.800   8.606E-01
   27.900   8.479E-01
   28.000   8.356E-01
   28.100   8.235E-01
   28.200   8.118E-01
   28.300   8.003E-01
   28.400   7.891E-01
   28.500   7.781E-01
   28.600   7.674E-01
   28.700   7.569E-01
   28.800   7.466E-01
   28.900   7.366E-01
   29.000   7.268E-01
   29.100   7.172E-01
   29.200   7.078E-01
   29.300   6.987E-01
   29.400   6.897E-01
   29.500   6.809E-01
   29.600   6.723E-01
   29.700   6.638E-01
   29.800   6.555E-01
   29.900   6.474E-01
   30.000   6.395E-01
 
 Z=  47 A= 114  D1M-QRPA-Inter
 E[MeV]  fQRPA[mb/MeV]
    0.100   2.601E-04
    0.200   1.023E-03
    0.300   2.245E-03
    0.400   3.872E-03
    0.500   5.854E-03
    0.600   8.153E-03
    0.700   1.074E-02
    0.800   1.359E-02
    0.900   1.670E-02
    1.000   2.005E-02
    1.100   2.363E-02
    1.200   2.744E-02
    1.300   3.145E-02
    1.400   3.567E-02
    1.500   4.008E-02
    1.600   4.466E-02
    1.700   4.940E-02
    1.800   5.430E-02
    1.900   5.933E-02
    2.000   6.447E-02
    2.100   6.972E-02
    2.200   7.504E-02
    2.300   8.044E-02
    2.400   8.588E-02
    2.500   9.136E-02
    2.600   9.686E-02
    2.700   1.024E-01
    2.800   1.079E-01
    2.900   1.134E-01
    3.000   1.189E-01
    3.100   1.244E-01
    3.200   1.298E-01
    3.300   1.353E-01
    3.400   1.408E-01
    3.500   1.463E-01
    3.600   1.519E-01
    3.700   1.574E-01
    3.800   1.631E-01
    3.900   1.689E-01
    4.000   1.747E-01
    4.100   1.807E-01
    4.200   1.868E-01
    4.300   1.931E-01
    4.400   1.995E-01
    4.500   2.062E-01
    4.600   2.131E-01
    4.700   2.203E-01
    4.800   2.277E-01
    4.900   2.354E-01
    5.000   2.435E-01
    5.100   2.518E-01
    5.200   2.606E-01
    5.300   2.697E-01
    5.400   2.793E-01
    5.500   2.893E-01
    5.600   2.998E-01
    5.700   3.107E-01
    5.800   3.223E-01
    5.900   3.343E-01
    6.000   3.470E-01
    6.100   3.603E-01
    6.200   3.742E-01
    6.300   3.889E-01
    6.400   4.042E-01
    6.500   4.203E-01
    6.600   4.372E-01
    6.700   4.548E-01
    6.800   4.733E-01
    6.900   4.926E-01
    7.000   5.129E-01
    7.100   5.339E-01
    7.200   5.559E-01
    7.300   5.789E-01
    7.400   6.028E-01
    7.500   6.276E-01
    7.600   6.534E-01
    7.700   6.803E-01
    7.800   7.082E-01
    7.900   7.371E-01
    8.000   7.672E-01
    8.100   7.984E-01
    8.200   8.309E-01
    8.300   8.646E-01
    8.400   8.996E-01
    8.500   9.359E-01
    8.600   9.737E-01
    8.700   1.013E+00
    8.800   1.054E+00
    8.900   1.096E+00
    9.000   1.140E+00
    9.100   1.186E+00
    9.200   1.234E+00
    9.300   1.283E+00
    9.400   1.335E+00
    9.500   1.389E+00
    9.600   1.444E+00
    9.700   1.503E+00
    9.800   1.563E+00
    9.900   1.627E+00
   10.000   1.693E+00
   10.100   1.761E+00
   10.200   1.833E+00
   10.300   1.908E+00
   10.400   1.986E+00
   10.500   2.068E+00
   10.600   2.154E+00
   10.700   2.244E+00
   10.800   2.337E+00
   10.900   2.436E+00
   11.000   2.539E+00
   11.100   2.647E+00
   11.200   2.761E+00
   11.300   2.880E+00
   11.400   3.006E+00
   11.500   3.138E+00
   11.600   3.276E+00
   11.700   3.423E+00
   11.800   3.576E+00
   11.900   3.738E+00
   12.000   3.908E+00
   12.100   4.087E+00
   12.200   4.276E+00
   12.300   4.474E+00
   12.400   4.682E+00
   12.500   4.900E+00
   12.600   5.128E+00
   12.700   5.367E+00
   12.800   5.616E+00
   12.900   5.875E+00
   13.000   6.144E+00
   13.100   6.422E+00
   13.200   6.709E+00
   13.300   7.004E+00
   13.400   7.305E+00
   13.500   7.612E+00
   13.600   7.922E+00
   13.700   8.235E+00
   13.800   8.548E+00
   13.900   8.859E+00
   14.000   9.166E+00
   14.100   9.468E+00
   14.200   9.761E+00
   14.300   1.004E+01
   14.400   1.032E+01
   14.500   1.057E+01
   14.600   1.082E+01
   14.700   1.104E+01
   14.800   1.125E+01
   14.900   1.144E+01
   15.000   1.161E+01
   15.100   1.176E+01
   15.200   1.189E+01
   15.300   1.200E+01
   15.400   1.210E+01
   15.500   1.218E+01
   15.600   1.224E+01
   15.700   1.229E+01
   15.800   1.232E+01
   15.900   1.234E+01
   16.000   1.235E+01
   16.100   1.234E+01
   16.200   1.232E+01
   16.300   1.229E+01
   16.400   1.225E+01
   16.500   1.219E+01
   16.600   1.211E+01
   16.700   1.203E+01
   16.800   1.192E+01
   16.900   1.180E+01
   17.000   1.166E+01
   17.100   1.151E+01
   17.200   1.134E+01
   17.300   1.115E+01
   17.400   1.095E+01
   17.500   1.074E+01
   17.600   1.052E+01
   17.700   1.028E+01
   17.800   1.004E+01
   17.900   9.790E+00
   18.000   9.536E+00
   18.100   9.280E+00
   18.200   9.022E+00
   18.300   8.764E+00
   18.400   8.508E+00
   18.500   8.255E+00
   18.600   8.006E+00
   18.700   7.762E+00
   18.800   7.523E+00
   18.900   7.289E+00
   19.000   7.062E+00
   19.100   6.840E+00
   19.200   6.626E+00
   19.300   6.417E+00
   19.400   6.215E+00
   19.500   6.019E+00
   19.600   5.829E+00
   19.700   5.645E+00
   19.800   5.466E+00
   19.900   5.293E+00
   20.000   5.126E+00
   20.100   4.963E+00
   20.200   4.806E+00
   20.300   4.653E+00
   20.400   4.506E+00
   20.500   4.363E+00
   20.600   4.225E+00
   20.700   4.091E+00
   20.800   3.962E+00
   20.900   3.837E+00
   21.000   3.716E+00
   21.100   3.599E+00
   21.200   3.487E+00
   21.300   3.378E+00
   21.400   3.273E+00
   21.500   3.171E+00
   21.600   3.073E+00
   21.700   2.979E+00
   21.800   2.888E+00
   21.900   2.800E+00
   22.000   2.716E+00
   22.100   2.634E+00
   22.200   2.556E+00
   22.300   2.480E+00
   22.400   2.408E+00
   22.500   2.338E+00
   22.600   2.271E+00
   22.700   2.207E+00
   22.800   2.145E+00
   22.900   2.086E+00
   23.000   2.029E+00
   23.100   1.974E+00
   23.200   1.922E+00
   23.300   1.872E+00
   23.400   1.823E+00
   23.500   1.777E+00
   23.600   1.733E+00
   23.700   1.690E+00
   23.800   1.649E+00
   23.900   1.610E+00
   24.000   1.572E+00
   24.100   1.536E+00
   24.200   1.501E+00
   24.300   1.467E+00
   24.400   1.434E+00
   24.500   1.403E+00
   24.600   1.373E+00
   24.700   1.344E+00
   24.800   1.316E+00
   24.900   1.289E+00
   25.000   1.263E+00
   25.100   1.237E+00
   25.200   1.213E+00
   25.300   1.189E+00
   25.400   1.166E+00
   25.500   1.144E+00
   25.600   1.123E+00
   25.700   1.102E+00
   25.800   1.082E+00
   25.900   1.062E+00
   26.000   1.043E+00
   26.100   1.025E+00
   26.200   1.007E+00
   26.300   9.895E-01
   26.400   9.727E-01
   26.500   9.563E-01
   26.600   9.404E-01
   26.700   9.249E-01
   26.800   9.099E-01
   26.900   8.952E-01
   27.000   8.810E-01
   27.100   8.671E-01
   27.200   8.535E-01
   27.300   8.404E-01
   27.400   8.275E-01
   27.500   8.150E-01
   27.600   8.028E-01
   27.700   7.909E-01
   27.800   7.793E-01
   27.900   7.680E-01
   28.000   7.569E-01
   28.100   7.461E-01
   28.200   7.356E-01
   28.300   7.253E-01
   28.400   7.152E-01
   28.500   7.054E-01
   28.600   6.958E-01
   28.700   6.864E-01
   28.800   6.772E-01
   28.900   6.682E-01
   29.000   6.595E-01
   29.100   6.509E-01
   29.200   6.424E-01
   29.300   6.342E-01
   29.400   6.262E-01
   29.500   6.183E-01
   29.600   6.105E-01
   29.700   6.030E-01
   29.800   5.955E-01
   29.900   5.883E-01
   30.000   5.812E-01
 
 Z=  47 A= 115  D1M-QRPA-Inter
 E[MeV]  fQRPA[mb/MeV]
    0.100   3.074E-04
    0.200   1.188E-03
    0.300   2.538E-03
    0.400   4.237E-03
    0.500   6.181E-03
    0.600   8.297E-03
    0.700   1.054E-02
    0.800   1.288E-02
    0.900   1.530E-02
    1.000   1.779E-02
    1.100   2.035E-02
    1.200   2.297E-02
    1.300   2.566E-02
    1.400   2.841E-02
    1.500   3.122E-02
    1.600   3.410E-02
    1.700   3.705E-02
    1.800   4.009E-02
    1.900   4.321E-02
    2.000   4.643E-02
    2.100   4.976E-02
    2.200   5.321E-02
    2.300   5.679E-02
    2.400   6.051E-02
    2.500   6.439E-02
    2.600   6.844E-02
    2.700   7.267E-02
    2.800   7.709E-02
    2.900   8.172E-02
    3.000   8.657E-02
    3.100   9.165E-02
    3.200   9.697E-02
    3.300   1.026E-01
    3.400   1.084E-01
    3.500   1.145E-01
    3.600   1.210E-01
    3.700   1.277E-01
    3.800   1.348E-01
    3.900   1.422E-01
    4.000   1.500E-01
    4.100   1.581E-01
    4.200   1.667E-01
    4.300   1.756E-01
    4.400   1.850E-01
    4.500   1.949E-01
    4.600   2.052E-01
    4.700   2.160E-01
    4.800   2.274E-01
    4.900   2.393E-01
    5.000   2.518E-01
    5.100   2.650E-01
    5.200   2.788E-01
    5.300   2.932E-01
    5.400   3.084E-01
    5.500   3.244E-01
    5.600   3.412E-01
    5.700   3.589E-01
    5.800   3.774E-01
    5.900   3.969E-01
    6.000   4.173E-01
    6.100   4.388E-01
    6.200   4.613E-01
    6.300   4.850E-01
    6.400   5.098E-01
    6.500   5.357E-01
    6.600   5.629E-01
    6.700   5.913E-01
    6.800   6.208E-01
    6.900   6.516E-01
    7.000   6.837E-01
    7.100   7.169E-01
    7.200   7.513E-01
    7.300   7.869E-01
    7.400   8.237E-01
    7.500   8.616E-01
    7.600   9.007E-01
    7.700   9.409E-01
    7.800   9.823E-01
    7.900   1.025E+00
    8.000   1.069E+00
    8.100   1.114E+00
    8.200   1.160E+00
    8.300   1.209E+00
    8.400   1.258E+00
    8.500   1.310E+00
    8.600   1.363E+00
    8.700   1.418E+00
    8.800   1.476E+00
    8.900   1.535E+00
    9.000   1.598E+00
    9.100   1.663E+00
    9.200   1.730E+00
    9.300   1.801E+00
    9.400   1.874E+00
    9.500   1.951E+00
    9.600   2.031E+00
    9.700   2.115E+00
    9.800   2.202E+00
    9.900   2.293E+00
   10.000   2.387E+00
   10.100   2.486E+00
   10.200   2.589E+00
   10.300   2.696E+00
   10.400   2.808E+00
   10.500   2.925E+00
   10.600   3.047E+00
   10.700   3.175E+00
   10.800   3.309E+00
   10.900   3.449E+00
   11.000   3.596E+00
   11.100   3.751E+00
   11.200   3.913E+00
   11.300   4.084E+00
   11.400   4.264E+00
   11.500   4.454E+00
   11.600   4.654E+00
   11.700   4.865E+00
   11.800   5.088E+00
   11.900   5.323E+00
   12.000   5.571E+00
   12.100   5.832E+00
   12.200   6.106E+00
   12.300   6.395E+00
   12.400   6.697E+00
   12.500   7.013E+00
   12.600   7.343E+00
   12.700   7.685E+00
   12.800   8.040E+00
   12.900   8.406E+00
   13.000   8.781E+00
   13.100   9.163E+00
   13.200   9.551E+00
   13.300   9.941E+00
   13.400   1.033E+01
   13.500   1.072E+01
   13.600   1.109E+01
   13.700   1.146E+01
   13.800   1.182E+01
   13.900   1.215E+01
   14.000   1.247E+01
   14.100   1.276E+01
   14.200   1.303E+01
   14.300   1.327E+01
   14.400   1.349E+01
   14.500   1.368E+01
   14.600   1.384E+01
   14.700   1.398E+01
   14.800   1.410E+01
   14.900   1.419E+01
   15.000   1.427E+01
   15.100   1.433E+01
   15.200   1.438E+01
   15.300   1.441E+01
   15.400   1.444E+01
   15.500   1.446E+01
   15.600   1.447E+01
   15.700   1.447E+01
   15.800   1.446E+01
   15.900   1.445E+01
   16.000   1.442E+01
   16.100   1.439E+01
   16.200   1.433E+01
   16.300   1.427E+01
   16.400   1.418E+01
   16.500   1.407E+01
   16.600   1.394E+01
   16.700   1.379E+01
   16.800   1.361E+01
   16.900   1.340E+01
   17.000   1.317E+01
   17.100   1.292E+01
   17.200   1.265E+01
   17.300   1.236E+01
   17.400   1.206E+01
   17.500   1.174E+01
   17.600   1.142E+01
   17.700   1.109E+01
   17.800   1.076E+01
   17.900   1.042E+01
   18.000   1.009E+01
   18.100   9.769E+00
   18.200   9.451E+00
   18.300   9.141E+00
   18.400   8.840E+00
   18.500   8.549E+00
   18.600   8.270E+00
   18.700   8.001E+00
   18.800   7.744E+00
   18.900   7.498E+00
   19.000   7.263E+00
   19.100   7.039E+00
   19.200   6.825E+00
   19.300   6.621E+00
   19.400   6.426E+00
   19.500   6.241E+00
   19.600   6.063E+00
   19.700   5.893E+00
   19.800   5.730E+00
   19.900   5.573E+00
   20.000   5.422E+00
   20.100   5.277E+00
   20.200   5.137E+00
   20.300   5.001E+00
   20.400   4.869E+00
   20.500   4.741E+00
   20.600   4.617E+00
   20.700   4.496E+00
   20.800   4.377E+00
   20.900   4.261E+00
   21.000   4.148E+00
   21.100   4.037E+00
   21.200   3.929E+00
   21.300   3.822E+00
   21.400   3.718E+00
   21.500   3.615E+00
   21.600   3.515E+00
   21.700   3.416E+00
   21.800   3.320E+00
   21.900   3.226E+00
   22.000   3.134E+00
   22.100   3.044E+00
   22.200   2.957E+00
   22.300   2.872E+00
   22.400   2.790E+00
   22.500   2.710E+00
   22.600   2.633E+00
   22.700   2.559E+00
   22.800   2.487E+00
   22.900   2.418E+00
   23.000   2.352E+00
   23.100   2.288E+00
   23.200   2.227E+00
   23.300   2.168E+00
   23.400   2.112E+00
   23.500   2.058E+00
   23.600   2.006E+00
   23.700   1.956E+00
   23.800   1.908E+00
   23.900   1.862E+00
   24.000   1.817E+00
   24.100   1.775E+00
   24.200   1.734E+00
   24.300   1.695E+00
   24.400   1.657E+00
   24.500   1.620E+00
   24.600   1.585E+00
   24.700   1.552E+00
   24.800   1.519E+00
   24.900   1.488E+00
   25.000   1.457E+00
   25.100   1.428E+00
   25.200   1.400E+00
   25.300   1.372E+00
   25.400   1.346E+00
   25.500   1.320E+00
   25.600   1.296E+00
   25.700   1.272E+00
   25.800   1.248E+00
   25.900   1.226E+00
   26.000   1.204E+00
   26.100   1.183E+00
   26.200   1.162E+00
   26.300   1.143E+00
   26.400   1.123E+00
   26.500   1.104E+00
   26.600   1.086E+00
   26.700   1.068E+00
   26.800   1.051E+00
   26.900   1.034E+00
   27.000   1.018E+00
   27.100   1.002E+00
   27.200   9.866E-01
   27.300   9.715E-01
   27.400   9.568E-01
   27.500   9.425E-01
   27.600   9.285E-01
   27.700   9.149E-01
   27.800   9.016E-01
   27.900   8.886E-01
   28.000   8.759E-01
   28.100   8.636E-01
   28.200   8.515E-01
   28.300   8.397E-01
   28.400   8.282E-01
   28.500   8.170E-01
   28.600   8.060E-01
   28.700   7.952E-01
   28.800   7.847E-01
   28.900   7.744E-01
   29.000   7.644E-01
   29.100   7.545E-01
   29.200   7.449E-01
   29.300   7.355E-01
   29.400   7.263E-01
   29.500   7.172E-01
   29.600   7.084E-01
   29.700   6.997E-01
   29.800   6.912E-01
   29.900   6.829E-01
   30.000   6.747E-01
 
 Z=  47 A= 116  D1M-QRPA-Inter
 E[MeV]  fQRPA[mb/MeV]
    0.100   1.852E-04
    0.200   7.207E-04
    0.300   1.556E-03
    0.400   2.632E-03
    0.500   3.895E-03
    0.600   5.307E-03
    0.700   6.842E-03
    0.800   8.483E-03
    0.900   1.022E-02
    1.000   1.205E-02
    1.100   1.396E-02
    1.200   1.596E-02
    1.300   1.804E-02
    1.400   2.021E-02
    1.500   2.246E-02
    1.600   2.480E-02
    1.700   2.724E-02
    1.800   2.977E-02
    1.900   3.240E-02
    2.000   3.515E-02
    2.100   3.801E-02
    2.200   4.100E-02
    2.300   4.411E-02
    2.400   4.737E-02
    2.500   5.078E-02
    2.600   5.435E-02
    2.700   5.809E-02
    2.800   6.201E-02
    2.900   6.611E-02
    3.000   7.041E-02
    3.100   7.492E-02
    3.200   7.965E-02
    3.300   8.461E-02
    3.400   8.980E-02
    3.500   9.525E-02
    3.600   1.010E-01
    3.700   1.069E-01
    3.800   1.132E-01
    3.900   1.198E-01
    4.000   1.267E-01
    4.100   1.339E-01
    4.200   1.415E-01
    4.300   1.495E-01
    4.400   1.578E-01
    4.500   1.665E-01
    4.600   1.757E-01
    4.700   1.853E-01
    4.800   1.954E-01
    4.900   2.060E-01
    5.000   2.171E-01
    5.100   2.288E-01
    5.200   2.411E-01
    5.300   2.540E-01
    5.400   2.675E-01
    5.500   2.818E-01
    5.600   2.967E-01
    5.700   3.125E-01
    5.800   3.290E-01
    5.900   3.464E-01
    6.000   3.647E-01
    6.100   3.838E-01
    6.200   4.040E-01
    6.300   4.251E-01
    6.400   4.473E-01
    6.500   4.705E-01
    6.600   4.948E-01
    6.700   5.202E-01
    6.800   5.466E-01
    6.900   5.741E-01
    7.000   6.027E-01
    7.100   6.323E-01
    7.200   6.630E-01
    7.300   6.946E-01
    7.400   7.271E-01
    7.500   7.605E-01
    7.600   7.948E-01
    7.700   8.299E-01
    7.800   8.658E-01
    7.900   9.026E-01
    8.000   9.403E-01
    8.100   9.788E-01
    8.200   1.018E+00
    8.300   1.059E+00
    8.400   1.101E+00
    8.500   1.144E+00
    8.600   1.188E+00
    8.700   1.234E+00
    8.800   1.281E+00
    8.900   1.331E+00
    9.000   1.382E+00
    9.100   1.435E+00
    9.200   1.491E+00
    9.300   1.549E+00
    9.400   1.609E+00
    9.500   1.672E+00
    9.600   1.738E+00
    9.700   1.807E+00
    9.800   1.878E+00
    9.900   1.953E+00
   10.000   2.031E+00
   10.100   2.113E+00
   10.200   2.198E+00
   10.300   2.286E+00
   10.400   2.379E+00
   10.500   2.475E+00
   10.600   2.576E+00
   10.700   2.682E+00
   10.800   2.792E+00
   10.900   2.908E+00
   11.000   3.030E+00
   11.100   3.157E+00
   11.200   3.291E+00
   11.300   3.432E+00
   11.400   3.581E+00
   11.500   3.737E+00
   11.600   3.903E+00
   11.700   4.078E+00
   11.800   4.263E+00
   11.900   4.458E+00
   12.000   4.665E+00
   12.100   4.884E+00
   12.200   5.115E+00
   12.300   5.359E+00
   12.400   5.615E+00
   12.500   5.886E+00
   12.600   6.169E+00
   12.700   6.466E+00
   12.800   6.776E+00
   12.900   7.097E+00
   13.000   7.431E+00
   13.100   7.774E+00
   13.200   8.126E+00
   13.300   8.484E+00
   13.400   8.846E+00
   13.500   9.210E+00
   13.600   9.572E+00
   13.700   9.930E+00
   13.800   1.028E+01
   13.900   1.062E+01
   14.000   1.094E+01
   14.100   1.125E+01
   14.200   1.154E+01
   14.300   1.180E+01
   14.400   1.204E+01
   14.500   1.226E+01
   14.600   1.245E+01
   14.700   1.261E+01
   14.800   1.276E+01
   14.900   1.287E+01
   15.000   1.296E+01
   15.100   1.303E+01
   15.200   1.308E+01
   15.300   1.311E+01
   15.400   1.313E+01
   15.500   1.312E+01
   15.600   1.310E+01
   15.700   1.306E+01
   15.800   1.301E+01
   15.900   1.294E+01
   16.000   1.286E+01
   16.100   1.276E+01
   16.200   1.264E+01
   16.300   1.251E+01
   16.400   1.235E+01
   16.500   1.218E+01
   16.600   1.199E+01
   16.700   1.178E+01
   16.800   1.156E+01
   16.900   1.132E+01
   17.000   1.107E+01
   17.100   1.081E+01
   17.200   1.053E+01
   17.300   1.025E+01
   17.400   9.967E+00
   17.500   9.679E+00
   17.600   9.391E+00
   17.700   9.104E+00
   17.800   8.821E+00
   17.900   8.542E+00
   18.000   8.270E+00
   18.100   8.006E+00
   18.200   7.750E+00
   18.300   7.503E+00
   18.400   7.265E+00
   18.500   7.037E+00
   18.600   6.819E+00
   18.700   6.611E+00
   18.800   6.413E+00
   18.900   6.224E+00
   19.000   6.044E+00
   19.100   5.873E+00
   19.200   5.709E+00
   19.300   5.553E+00
   19.400   5.404E+00
   19.500   5.261E+00
   19.600   5.123E+00
   19.700   4.991E+00
   19.800   4.862E+00
   19.900   4.738E+00
   20.000   4.616E+00
   20.100   4.498E+00
   20.200   4.383E+00
   20.300   4.269E+00
   20.400   4.158E+00
   20.500   4.049E+00
   20.600   3.941E+00
   20.700   3.836E+00
   20.800   3.732E+00
   20.900   3.630E+00
   21.000   3.529E+00
   21.100   3.431E+00
   21.200   3.335E+00
   21.300   3.240E+00
   21.400   3.148E+00
   21.500   3.057E+00
   21.600   2.969E+00
   21.700   2.884E+00
   21.800   2.800E+00
   21.900   2.719E+00
   22.000   2.640E+00
   22.100   2.563E+00
   22.200   2.489E+00
   22.300   2.418E+00
   22.400   2.349E+00
   22.500   2.282E+00
   22.600   2.217E+00
   22.700   2.155E+00
   22.800   2.096E+00
   22.900   2.038E+00
   23.000   1.983E+00
   23.100   1.930E+00
   23.200   1.880E+00
   23.300   1.831E+00
   23.400   1.784E+00
   23.500   1.739E+00
   23.600   1.696E+00
   23.700   1.654E+00
   23.800   1.614E+00
   23.900   1.576E+00
   24.000   1.539E+00
   24.100   1.504E+00
   24.200   1.470E+00
   24.300   1.437E+00
   24.400   1.405E+00
   24.500   1.375E+00
   24.600   1.346E+00
   24.700   1.317E+00
   24.800   1.290E+00
   24.900   1.264E+00
   25.000   1.238E+00
   25.100   1.214E+00
   25.200   1.190E+00
   25.300   1.167E+00
   25.400   1.145E+00
   25.500   1.123E+00
   25.600   1.102E+00
   25.700   1.082E+00
   25.800   1.063E+00
   25.900   1.044E+00
   26.000   1.025E+00
   26.100   1.008E+00
   26.200   9.903E-01
   26.300   9.735E-01
   26.400   9.571E-01
   26.500   9.413E-01
   26.600   9.259E-01
   26.700   9.109E-01
   26.800   8.963E-01
   26.900   8.821E-01
   27.000   8.682E-01
   27.100   8.548E-01
   27.200   8.417E-01
   27.300   8.289E-01
   27.400   8.165E-01
   27.500   8.043E-01
   27.600   7.925E-01
   27.700   7.810E-01
   27.800   7.697E-01
   27.900   7.587E-01
   28.000   7.480E-01
   28.100   7.375E-01
   28.200   7.273E-01
   28.300   7.173E-01
   28.400   7.075E-01
   28.500   6.980E-01
   28.600   6.887E-01
   28.700   6.795E-01
   28.800   6.706E-01
   28.900   6.619E-01
   29.000   6.533E-01
   29.100   6.450E-01
   29.200   6.368E-01
   29.300   6.288E-01
   29.400   6.210E-01
   29.500   6.133E-01
   29.600   6.058E-01
   29.700   5.984E-01
   29.800   5.912E-01
   29.900   5.841E-01
   30.000   5.771E-01
 
 Z=  47 A= 117  D1M-QRPA-Inter
 E[MeV]  fQRPA[mb/MeV]
    0.100   1.580E-04
    0.200   6.192E-04
    0.300   1.351E-03
    0.400   2.315E-03
    0.500   3.476E-03
    0.600   4.807E-03
    0.700   6.290E-03
    0.800   7.914E-03
    0.900   9.670E-03
    1.000   1.156E-02
    1.100   1.357E-02
    1.200   1.570E-02
    1.300   1.797E-02
    1.400   2.036E-02
    1.500   2.288E-02
    1.600   2.555E-02
    1.700   2.835E-02
    1.800   3.130E-02
    1.900   3.441E-02
    2.000   3.767E-02
    2.100   4.111E-02
    2.200   4.472E-02
    2.300   4.852E-02
    2.400   5.252E-02
    2.500   5.672E-02
    2.600   6.113E-02
    2.700   6.576E-02
    2.800   7.063E-02
    2.900   7.573E-02
    3.000   8.110E-02
    3.100   8.673E-02
    3.200   9.264E-02
    3.300   9.883E-02
    3.400   1.053E-01
    3.500   1.122E-01
    3.600   1.193E-01
    3.700   1.268E-01
    3.800   1.347E-01
    3.900   1.429E-01
    4.000   1.516E-01
    4.100   1.606E-01
    4.200   1.701E-01
    4.300   1.801E-01
    4.400   1.906E-01
    4.500   2.015E-01
    4.600   2.131E-01
    4.700   2.251E-01
    4.800   2.378E-01
    4.900   2.511E-01
    5.000   2.651E-01
    5.100   2.798E-01
    5.200   2.953E-01
    5.300   3.115E-01
    5.400   3.286E-01
    5.500   3.465E-01
    5.600   3.654E-01
    5.700   3.852E-01
    5.800   4.061E-01
    5.900   4.281E-01
    6.000   4.512E-01
    6.100   4.754E-01
    6.200   5.009E-01
    6.300   5.277E-01
    6.400   5.558E-01
    6.500   5.852E-01
    6.600   6.159E-01
    6.700   6.480E-01
    6.800   6.815E-01
    6.900   7.163E-01
    7.000   7.524E-01
    7.100   7.898E-01
    7.200   8.283E-01
    7.300   8.680E-01
    7.400   9.087E-01
    7.500   9.504E-01
    7.600   9.930E-01
    7.700   1.036E+00
    7.800   1.081E+00
    7.900   1.126E+00
    8.000   1.171E+00
    8.100   1.218E+00
    8.200   1.265E+00
    8.300   1.314E+00
    8.400   1.363E+00
    8.500   1.414E+00
    8.600   1.466E+00
    8.700   1.520E+00
    8.800   1.575E+00
    8.900   1.633E+00
    9.000   1.692E+00
    9.100   1.754E+00
    9.200   1.819E+00
    9.300   1.886E+00
    9.400   1.956E+00
    9.500   2.029E+00
    9.600   2.106E+00
    9.700   2.186E+00
    9.800   2.269E+00
    9.900   2.356E+00
   10.000   2.447E+00
   10.100   2.542E+00
   10.200   2.641E+00
   10.300   2.745E+00
   10.400   2.853E+00
   10.500   2.966E+00
   10.600   3.084E+00
   10.700   3.208E+00
   10.800   3.337E+00
   10.900   3.472E+00
   11.000   3.614E+00
   11.100   3.763E+00
   11.200   3.919E+00
   11.300   4.084E+00
   11.400   4.257E+00
   11.500   4.441E+00
   11.600   4.634E+00
   11.700   4.839E+00
   11.800   5.057E+00
   11.900   5.287E+00
   12.000   5.532E+00
   12.100   5.791E+00
   12.200   6.066E+00
   12.300   6.358E+00
   12.400   6.667E+00
   12.500   6.994E+00
   12.600   7.339E+00
   12.700   7.703E+00
   12.800   8.085E+00
   12.900   8.486E+00
   13.000   8.904E+00
   13.100   9.339E+00
   13.200   9.789E+00
   13.300   1.025E+01
   13.400   1.073E+01
   13.500   1.121E+01
   13.600   1.169E+01
   13.700   1.218E+01
   13.800   1.266E+01
   13.900   1.314E+01
   14.000   1.360E+01
   14.100   1.404E+01
   14.200   1.446E+01
   14.300   1.486E+01
   14.400   1.522E+01
   14.500   1.556E+01
   14.600   1.586E+01
   14.700   1.612E+01
   14.800   1.634E+01
   14.900   1.653E+01
   15.000   1.667E+01
   15.100   1.678E+01
   15.200   1.685E+01
   15.300   1.689E+01
   15.400   1.689E+01
   15.500   1.686E+01
   15.600   1.680E+01
   15.700   1.670E+01
   15.800   1.657E+01
   15.900   1.642E+01
   16.000   1.623E+01
   16.100   1.602E+01
   16.200   1.578E+01
   16.300   1.552E+01
   16.400   1.523E+01
   16.500   1.493E+01
   16.600   1.460E+01
   16.700   1.426E+01
   16.800   1.391E+01
   16.900   1.354E+01
   17.000   1.317E+01
   17.100   1.279E+01
   17.200   1.242E+01
   17.300   1.204E+01
   17.400   1.166E+01
   17.500   1.130E+01
   17.600   1.094E+01
   17.700   1.058E+01
   17.800   1.024E+01
   17.900   9.912E+00
   18.000   9.595E+00
   18.100   9.290E+00
   18.200   8.998E+00
   18.300   8.719E+00
   18.400   8.454E+00
   18.500   8.202E+00
   18.600   7.962E+00
   18.700   7.735E+00
   18.800   7.520E+00
   18.900   7.316E+00
   19.000   7.122E+00
   19.100   6.938E+00
   19.200   6.763E+00
   19.300   6.595E+00
   19.400   6.434E+00
   19.500   6.280E+00
   19.600   6.130E+00
   19.700   5.985E+00
   19.800   5.842E+00
   19.900   5.703E+00
   20.000   5.565E+00
   20.100   5.429E+00
   20.200   5.294E+00
   20.300   5.161E+00
   20.400   5.027E+00
   20.500   4.895E+00
   20.600   4.764E+00
   20.700   4.634E+00
   20.800   4.505E+00
   20.900   4.377E+00
   21.000   4.252E+00
   21.100   4.129E+00
   21.200   4.008E+00
   21.300   3.889E+00
   21.400   3.774E+00
   21.500   3.662E+00
   21.600   3.552E+00
   21.700   3.446E+00
   21.800   3.344E+00
   21.900   3.245E+00
   22.000   3.149E+00
   22.100   3.057E+00
   22.200   2.968E+00
   22.300   2.882E+00
   22.400   2.799E+00
   22.500   2.720E+00
   22.600   2.644E+00
   22.700   2.571E+00
   22.800   2.500E+00
   22.900   2.433E+00
   23.000   2.368E+00
   23.100   2.306E+00
   23.200   2.246E+00
   23.300   2.189E+00
   23.400   2.133E+00
   23.500   2.081E+00
   23.600   2.030E+00
   23.700   1.981E+00
   23.800   1.934E+00
   23.900   1.889E+00
   24.000   1.846E+00
   24.100   1.804E+00
   24.200   1.764E+00
   24.300   1.725E+00
   24.400   1.688E+00
   24.500   1.652E+00
   24.600   1.617E+00
   24.700   1.584E+00
   24.800   1.551E+00
   24.900   1.520E+00
   25.000   1.490E+00
   25.100   1.461E+00
   25.200   1.433E+00
   25.300   1.405E+00
   25.400   1.379E+00
   25.500   1.353E+00
   25.600   1.328E+00
   25.700   1.304E+00
   25.800   1.281E+00
   25.900   1.258E+00
   26.000   1.236E+00
   26.100   1.215E+00
   26.200   1.195E+00
   26.300   1.174E+00
   26.400   1.155E+00
   26.500   1.136E+00
   26.600   1.118E+00
   26.700   1.100E+00
   26.800   1.082E+00
   26.900   1.065E+00
   27.000   1.049E+00
   27.100   1.032E+00
   27.200   1.017E+00
   27.300   1.001E+00
   27.400   9.866E-01
   27.500   9.720E-01
   27.600   9.578E-01
   27.700   9.440E-01
   27.800   9.305E-01
   27.900   9.173E-01
   28.000   9.044E-01
   28.100   8.919E-01
   28.200   8.796E-01
   28.300   8.676E-01
   28.400   8.559E-01
   28.500   8.444E-01
   28.600   8.332E-01
   28.700   8.222E-01
   28.800   8.115E-01
   28.900   8.010E-01
   29.000   7.907E-01
   29.100   7.807E-01
   29.200   7.709E-01
   29.300   7.612E-01
   29.400   7.518E-01
   29.500   7.425E-01
   29.600   7.335E-01
   29.700   7.246E-01
   29.800   7.159E-01
   29.900   7.074E-01
   30.000   6.991E-01
 
 Z=  47 A= 118  D1M-QRPA-Inter
 E[MeV]  fQRPA[mb/MeV]
    0.100   9.016E-05
    0.200   3.570E-04
    0.300   7.913E-04
    0.400   1.381E-03
    0.500   2.117E-03
    0.600   2.989E-03
    0.700   3.992E-03
    0.800   5.121E-03
    0.900   6.373E-03
    1.000   7.748E-03
    1.100   9.245E-03
    1.200   1.086E-02
    1.300   1.260E-02
    1.400   1.447E-02
    1.500   1.646E-02
    1.600   1.858E-02
    1.700   2.083E-02
    1.800   2.321E-02
    1.900   2.574E-02
    2.000   2.841E-02
    2.100   3.122E-02
    2.200   3.419E-02
    2.300   3.732E-02
    2.400   4.061E-02
    2.500   4.408E-02
    2.600   4.771E-02
    2.700   5.154E-02
    2.800   5.555E-02
    2.900   5.975E-02
    3.000   6.416E-02
    3.100   6.879E-02
    3.200   7.363E-02
    3.300   7.870E-02
    3.400   8.401E-02
    3.500   8.957E-02
    3.600   9.539E-02
    3.700   1.015E-01
    3.800   1.078E-01
    3.900   1.145E-01
    4.000   1.215E-01
    4.100   1.288E-01
    4.200   1.364E-01
    4.300   1.444E-01
    4.400   1.527E-01
    4.500   1.614E-01
    4.600   1.706E-01
    4.700   1.801E-01
    4.800   1.901E-01
    4.900   2.006E-01
    5.000   2.115E-01
    5.100   2.230E-01
    5.200   2.350E-01
    5.300   2.476E-01
    5.400   2.608E-01
    5.500   2.747E-01
    5.600   2.892E-01
    5.700   3.044E-01
    5.800   3.203E-01
    5.900   3.371E-01
    6.000   3.546E-01
    6.100   3.730E-01
    6.200   3.923E-01
    6.300   4.125E-01
    6.400   4.337E-01
    6.500   4.559E-01
    6.600   4.791E-01
    6.700   5.034E-01
    6.800   5.288E-01
    6.900   5.552E-01
    7.000   5.828E-01
    7.100   6.115E-01
    7.200   6.413E-01
    7.300   6.721E-01
    7.400   7.041E-01
    7.500   7.371E-01
    7.600   7.712E-01
    7.700   8.063E-01
    7.800   8.424E-01
    7.900   8.795E-01
    8.000   9.175E-01
    8.100   9.566E-01
    8.200   9.966E-01
    8.300   1.038E+00
    8.400   1.080E+00
    8.500   1.123E+00
    8.600   1.167E+00
    8.700   1.212E+00
    8.800   1.259E+00
    8.900   1.306E+00
    9.000   1.356E+00
    9.100   1.407E+00
    9.200   1.459E+00
    9.300   1.514E+00
    9.400   1.570E+00
    9.500   1.629E+00
    9.600   1.690E+00
    9.700   1.753E+00
    9.800   1.819E+00
    9.900   1.888E+00
   10.000   1.960E+00
   10.100   2.035E+00
   10.200   2.114E+00
   10.300   2.196E+00
   10.400   2.283E+00
   10.500   2.374E+00
   10.600   2.469E+00
   10.700   2.568E+00
   10.800   2.673E+00
   10.900   2.784E+00
   11.000   2.899E+00
   11.100   3.021E+00
   11.200   3.150E+00
   11.300   3.285E+00
   11.400   3.427E+00
   11.500   3.578E+00
   11.600   3.736E+00
   11.700   3.904E+00
   11.800   4.081E+00
   11.900   4.268E+00
   12.000   4.465E+00
   12.100   4.674E+00
   12.200   4.895E+00
   12.300   5.129E+00
   12.400   5.376E+00
   12.500   5.636E+00
   12.600   5.911E+00
   12.700   6.200E+00
   12.800   6.505E+00
   12.900   6.824E+00
   13.000   7.158E+00
   13.100   7.507E+00
   13.200   7.869E+00
   13.300   8.244E+00
   13.400   8.631E+00
   13.500   9.027E+00
   13.600   9.430E+00
   13.700   9.838E+00
   13.800   1.025E+01
   13.900   1.066E+01
   14.000   1.106E+01
   14.100   1.145E+01
   14.200   1.183E+01
   14.300   1.220E+01
   14.400   1.254E+01
   14.500   1.286E+01
   14.600   1.315E+01
   14.700   1.341E+01
   14.800   1.364E+01
   14.900   1.384E+01
   15.000   1.400E+01
   15.100   1.412E+01
   15.200   1.421E+01
   15.300   1.426E+01
   15.400   1.428E+01
   15.500   1.427E+01
   15.600   1.422E+01
   15.700   1.415E+01
   15.800   1.404E+01
   15.900   1.391E+01
   16.000   1.375E+01
   16.100   1.357E+01
   16.200   1.336E+01
   16.300   1.314E+01
   16.400   1.290E+01
   16.500   1.264E+01
   16.600   1.237E+01
   16.700   1.209E+01
   16.800   1.180E+01
   16.900   1.150E+01
   17.000   1.120E+01
   17.100   1.089E+01
   17.200   1.058E+01
   17.300   1.028E+01
   17.400   9.971E+00
   17.500   9.669E+00
   17.600   9.372E+00
   17.700   9.081E+00
   17.800   8.796E+00
   17.900   8.519E+00
   18.000   8.249E+00
   18.100   7.988E+00
   18.200   7.735E+00
   18.300   7.491E+00
   18.400   7.256E+00
   18.500   7.030E+00
   18.600   6.813E+00
   18.700   6.604E+00
   18.800   6.403E+00
   18.900   6.211E+00
   19.000   6.026E+00
   19.100   5.848E+00
   19.200   5.677E+00
   19.300   5.513E+00
   19.400   5.354E+00
   19.500   5.202E+00
   19.600   5.054E+00
   19.700   4.911E+00
   19.800   4.773E+00
   19.900   4.638E+00
   20.000   4.507E+00
   20.100   4.380E+00
   20.200   4.256E+00
   20.300   4.134E+00
   20.400   4.016E+00
   20.500   3.901E+00
   20.600   3.789E+00
   20.700   3.679E+00
   20.800   3.572E+00
   20.900   3.468E+00
   21.000   3.368E+00
   21.100   3.270E+00
   21.200   3.174E+00
   21.300   3.082E+00
   21.400   2.993E+00
   21.500   2.907E+00
   21.600   2.824E+00
   21.700   2.744E+00
   21.800   2.667E+00
   21.900   2.592E+00
   22.000   2.520E+00
   22.100   2.451E+00
   22.200   2.385E+00
   22.300   2.321E+00
   22.400   2.259E+00
   22.500   2.200E+00
   22.600   2.143E+00
   22.700   2.088E+00
   22.800   2.035E+00
   22.900   1.984E+00
   23.000   1.936E+00
   23.100   1.889E+00
   23.200   1.843E+00
   23.300   1.800E+00
   23.400   1.758E+00
   23.500   1.718E+00
   23.600   1.679E+00
   23.700   1.642E+00
   23.800   1.605E+00
   23.900   1.571E+00
   24.000   1.537E+00
   24.100   1.505E+00
   24.200   1.474E+00
   24.300   1.443E+00
   24.400   1.414E+00
   24.500   1.386E+00
   24.600   1.359E+00
   24.700   1.332E+00
   24.800   1.307E+00
   24.900   1.282E+00
   25.000   1.258E+00
   25.100   1.235E+00
   25.200   1.212E+00
   25.300   1.190E+00
   25.400   1.169E+00
   25.500   1.149E+00
   25.600   1.129E+00
   25.700   1.109E+00
   25.800   1.091E+00
   25.900   1.072E+00
   26.000   1.055E+00
   26.100   1.037E+00
   26.200   1.021E+00
   26.300   1.004E+00
   26.400   9.884E-01
   26.500   9.730E-01
   26.600   9.580E-01
   26.700   9.434E-01
   26.800   9.291E-01
   26.900   9.152E-01
   27.000   9.017E-01
   27.100   8.885E-01
   27.200   8.757E-01
   27.300   8.632E-01
   27.400   8.510E-01
   27.500   8.391E-01
   27.600   8.274E-01
   27.700   8.161E-01
   27.800   8.050E-01
   27.900   7.942E-01
   28.000   7.836E-01
   28.100   7.733E-01
   28.200   7.632E-01
   28.300   7.533E-01
   28.400   7.436E-01
   28.500   7.341E-01
   28.600   7.248E-01
   28.700   7.156E-01
   28.800   7.066E-01
   28.900   6.978E-01
   29.000   6.892E-01
   29.100   6.807E-01
   29.200   6.723E-01
   29.300   6.641E-01
   29.400   6.560E-01
   29.500   6.481E-01
   29.600   6.403E-01
   29.700   6.326E-01
   29.800   6.251E-01
   29.900   6.177E-01
   30.000   6.104E-01
 
 Z=  47 A= 119  D1M-QRPA-Inter
 E[MeV]  fQRPA[mb/MeV]
    0.100   7.554E-05
    0.200   3.023E-04
    0.300   6.804E-04
    0.400   1.210E-03
    0.500   1.893E-03
    0.600   2.729E-03
    0.700   3.719E-03
    0.800   4.865E-03
    0.900   6.168E-03
    1.000   7.629E-03
    1.100   9.250E-03
    1.200   1.103E-02
    1.300   1.298E-02
    1.400   1.510E-02
    1.500   1.738E-02
    1.600   1.984E-02
    1.700   2.247E-02
    1.800   2.528E-02
    1.900   2.827E-02
    2.000   3.145E-02
    2.100   3.482E-02
    2.200   3.839E-02
    2.300   4.215E-02
    2.400   4.612E-02
    2.500   5.030E-02
    2.600   5.469E-02
    2.700   5.930E-02
    2.800   6.414E-02
    2.900   6.922E-02
    3.000   7.454E-02
    3.100   8.011E-02
    3.200   8.593E-02
    3.300   9.202E-02
    3.400   9.839E-02
    3.500   1.050E-01
    3.600   1.120E-01
    3.700   1.192E-01
    3.800   1.268E-01
    3.900   1.347E-01
    4.000   1.430E-01
    4.100   1.516E-01
    4.200   1.605E-01
    4.300   1.699E-01
    4.400   1.797E-01
    4.500   1.899E-01
    4.600   2.005E-01
    4.700   2.116E-01
    4.800   2.231E-01
    4.900   2.352E-01
    5.000   2.478E-01
    5.100   2.610E-01
    5.200   2.747E-01
    5.300   2.890E-01
    5.400   3.040E-01
    5.500   3.197E-01
    5.600   3.360E-01
    5.700   3.531E-01
    5.800   3.710E-01
    5.900   3.897E-01
    6.000   4.093E-01
    6.100   4.297E-01
    6.200   4.511E-01
    6.300   4.735E-01
    6.400   4.970E-01
    6.500   5.216E-01
    6.600   5.473E-01
    6.700   5.742E-01
    6.800   6.024E-01
    6.900   6.320E-01
    7.000   6.629E-01
    7.100   6.952E-01
    7.200   7.289E-01
    7.300   7.642E-01
    7.400   8.011E-01
    7.500   8.395E-01
    7.600   8.794E-01
    7.700   9.210E-01
    7.800   9.642E-01
    7.900   1.009E+00
    8.000   1.055E+00
    8.100   1.103E+00
    8.200   1.152E+00
    8.300   1.203E+00
    8.400   1.255E+00
    8.500   1.309E+00
    8.600   1.363E+00
    8.700   1.419E+00
    8.800   1.476E+00
    8.900   1.535E+00
    9.000   1.595E+00
    9.100   1.656E+00
    9.200   1.719E+00
    9.300   1.784E+00
    9.400   1.850E+00
    9.500   1.919E+00
    9.600   1.990E+00
    9.700   2.064E+00
    9.800   2.141E+00
    9.900   2.221E+00
   10.000   2.305E+00
   10.100   2.392E+00
   10.200   2.484E+00
   10.300   2.580E+00
   10.400   2.682E+00
   10.500   2.789E+00
   10.600   2.901E+00
   10.700   3.020E+00
   10.800   3.145E+00
   10.900   3.277E+00
   11.000   3.416E+00
   11.100   3.562E+00
   11.200   3.717E+00
   11.300   3.880E+00
   11.400   4.051E+00
   11.500   4.232E+00
   11.600   4.423E+00
   11.700   4.623E+00
   11.800   4.835E+00
   11.900   5.058E+00
   12.000   5.292E+00
   12.100   5.540E+00
   12.200   5.800E+00
   12.300   6.075E+00
   12.400   6.364E+00
   12.500   6.669E+00
   12.600   6.990E+00
   12.700   7.328E+00
   12.800   7.684E+00
   12.900   8.058E+00
   13.000   8.449E+00
   13.100   8.860E+00
   13.200   9.288E+00
   13.300   9.734E+00
   13.400   1.020E+01
   13.500   1.067E+01
   13.600   1.117E+01
   13.700   1.167E+01
   13.800   1.218E+01
   13.900   1.269E+01
   14.000   1.320E+01
   14.100   1.371E+01
   14.200   1.421E+01
   14.300   1.470E+01
   14.400   1.516E+01
   14.500   1.560E+01
   14.600   1.601E+01
   14.700   1.638E+01
   14.800   1.672E+01
   14.900   1.701E+01
   15.000   1.725E+01
   15.100   1.745E+01
   15.200   1.759E+01
   15.300   1.769E+01
   15.400   1.773E+01
   15.500   1.773E+01
   15.600   1.768E+01
   15.700   1.759E+01
   15.800   1.746E+01
   15.900   1.730E+01
   16.000   1.709E+01
   16.100   1.686E+01
   16.200   1.661E+01
   16.300   1.633E+01
   16.400   1.603E+01
   16.500   1.571E+01
   16.600   1.538E+01
   16.700   1.504E+01
   16.800   1.469E+01
   16.900   1.434E+01
   17.000   1.398E+01
   17.100   1.361E+01
   17.200   1.325E+01
   17.300   1.288E+01
   17.400   1.252E+01
   17.500   1.215E+01
   17.600   1.179E+01
   17.700   1.144E+01
   17.800   1.109E+01
   17.900   1.075E+01
   18.000   1.041E+01
   18.100   1.008E+01
   18.200   9.764E+00
   18.300   9.451E+00
   18.400   9.145E+00
   18.500   8.848E+00
   18.600   8.559E+00
   18.700   8.278E+00
   18.800   8.006E+00
   18.900   7.742E+00
   19.000   7.486E+00
   19.100   7.238E+00
   19.200   6.998E+00
   19.300   6.766E+00
   19.400   6.542E+00
   19.500   6.326E+00
   19.600   6.118E+00
   19.700   5.918E+00
   19.800   5.725E+00
   19.900   5.539E+00
   20.000   5.360E+00
   20.100   5.188E+00
   20.200   5.022E+00
   20.300   4.864E+00
   20.400   4.711E+00
   20.500   4.565E+00
   20.600   4.424E+00
   20.700   4.289E+00
   20.800   4.159E+00
   20.900   4.035E+00
   21.000   3.916E+00
   21.100   3.802E+00
   21.200   3.692E+00
   21.300   3.587E+00
   21.400   3.486E+00
   21.500   3.390E+00
   21.600   3.297E+00
   21.700   3.208E+00
   21.800   3.122E+00
   21.900   3.040E+00
   22.000   2.962E+00
   22.100   2.886E+00
   22.200   2.813E+00
   22.300   2.744E+00
   22.400   2.676E+00
   22.500   2.612E+00
   22.600   2.550E+00
   22.700   2.490E+00
   22.800   2.432E+00
   22.900   2.377E+00
   23.000   2.323E+00
   23.100   2.271E+00
   23.200   2.222E+00
   23.300   2.174E+00
   23.400   2.127E+00
   23.500   2.082E+00
   23.600   2.039E+00
   23.700   1.997E+00
   23.800   1.957E+00
   23.900   1.918E+00
   24.000   1.880E+00
   24.100   1.843E+00
   24.200   1.807E+00
   24.300   1.773E+00
   24.400   1.740E+00
   24.500   1.707E+00
   24.600   1.676E+00
   24.700   1.646E+00
   24.800   1.616E+00
   24.900   1.587E+00
   25.000   1.560E+00
   25.100   1.532E+00
   25.200   1.506E+00
   25.300   1.481E+00
   25.400   1.456E+00
   25.500   1.432E+00
   25.600   1.408E+00
   25.700   1.386E+00
   25.800   1.363E+00
   25.900   1.342E+00
   26.000   1.321E+00
   26.100   1.300E+00
   26.200   1.280E+00
   26.300   1.261E+00
   26.400   1.242E+00
   26.500   1.224E+00
   26.600   1.206E+00
   26.700   1.188E+00
   26.800   1.171E+00
   26.900   1.155E+00
   27.000   1.139E+00
   27.100   1.123E+00
   27.200   1.107E+00
   27.300   1.092E+00
   27.400   1.078E+00
   27.500   1.063E+00
   27.600   1.050E+00
   27.700   1.036E+00
   27.800   1.023E+00
   27.900   1.010E+00
   28.000   9.969E-01
   28.100   9.845E-01
   28.200   9.723E-01
   28.300   9.603E-01
   28.400   9.486E-01
   28.500   9.370E-01
   28.600   9.257E-01
   28.700   9.145E-01
   28.800   9.035E-01
   28.900   8.927E-01
   29.000   8.820E-01
   29.100   8.714E-01
   29.200   8.610E-01
   29.300   8.507E-01
   29.400   8.406E-01
   29.500   8.306E-01
   29.600   8.207E-01
   29.700   8.110E-01
   29.800   8.014E-01
   29.900   7.920E-01
   30.000   7.827E-01
 
 Z=  47 A= 120  D1M-QRPA-Inter
 E[MeV]  fQRPA[mb/MeV]
    0.100   7.234E-05
    0.200   2.895E-04
    0.300   6.516E-04
    0.400   1.159E-03
    0.500   1.813E-03
    0.600   2.614E-03
    0.700   3.562E-03
    0.800   4.660E-03
    0.900   5.908E-03
    1.000   7.309E-03
    1.100   8.863E-03
    1.200   1.057E-02
    1.300   1.244E-02
    1.400   1.447E-02
    1.500   1.666E-02
    1.600   1.902E-02
    1.700   2.154E-02
    1.800   2.424E-02
    1.900   2.712E-02
    2.000   3.017E-02
    2.100   3.341E-02
    2.200   3.684E-02
    2.300   4.045E-02
    2.400   4.427E-02
    2.500   4.829E-02
    2.600   5.252E-02
    2.700   5.697E-02
    2.800   6.163E-02
    2.900   6.653E-02
    3.000   7.166E-02
    3.100   7.703E-02
    3.200   8.265E-02
    3.300   8.854E-02
    3.400   9.469E-02
    3.500   1.011E-01
    3.600   1.079E-01
    3.700   1.149E-01
    3.800   1.222E-01
    3.900   1.299E-01
    4.000   1.379E-01
    4.100   1.462E-01
    4.200   1.549E-01
    4.300   1.640E-01
    4.400   1.735E-01
    4.500   1.834E-01
    4.600   1.938E-01
    4.700   2.046E-01
    4.800   2.159E-01
    4.900   2.276E-01
    5.000   2.399E-01
    5.100   2.528E-01
    5.200   2.662E-01
    5.300   2.802E-01
    5.400   2.949E-01
    5.500   3.102E-01
    5.600   3.262E-01
    5.700   3.429E-01
    5.800   3.604E-01
    5.900   3.787E-01
    6.000   3.978E-01
    6.100   4.178E-01
    6.200   4.388E-01
    6.300   4.607E-01
    6.400   4.836E-01
    6.500   5.076E-01
    6.600   5.327E-01
    6.700   5.589E-01
    6.800   5.863E-01
    6.900   6.150E-01
    7.000   6.449E-01
    7.100   6.761E-01
    7.200   7.087E-01
    7.300   7.426E-01
    7.400   7.780E-01
    7.500   8.147E-01
    7.600   8.529E-01
    7.700   8.925E-01
    7.800   9.336E-01
    7.900   9.761E-01
    8.000   1.020E+00
    8.100   1.065E+00
    8.200   1.112E+00
    8.300   1.160E+00
    8.400   1.210E+00
    8.500   1.261E+00
    8.600   1.313E+00
    8.700   1.367E+00
    8.800   1.423E+00
    8.900   1.480E+00
    9.000   1.538E+00
    9.100   1.598E+00
    9.200   1.661E+00
    9.300   1.725E+00
    9.400   1.792E+00
    9.500   1.860E+00
    9.600   1.932E+00
    9.700   2.007E+00
    9.800   2.084E+00
    9.900   2.165E+00
   10.000   2.250E+00
   10.100   2.338E+00
   10.200   2.431E+00
   10.300   2.528E+00
   10.400   2.630E+00
   10.500   2.736E+00
   10.600   2.849E+00
   10.700   2.966E+00
   10.800   3.090E+00
   10.900   3.220E+00
   11.000   3.356E+00
   11.100   3.499E+00
   11.200   3.649E+00
   11.300   3.807E+00
   11.400   3.972E+00
   11.500   4.146E+00
   11.600   4.328E+00
   11.700   4.519E+00
   11.800   4.719E+00
   11.900   4.928E+00
   12.000   5.148E+00
   12.100   5.377E+00
   12.200   5.617E+00
   12.300   5.868E+00
   12.400   6.129E+00
   12.500   6.401E+00
   12.600   6.684E+00
   12.700   6.977E+00
   12.800   7.281E+00
   12.900   7.594E+00
   13.000   7.916E+00
   13.100   8.247E+00
   13.200   8.584E+00
   13.300   8.927E+00
   13.400   9.273E+00
   13.500   9.622E+00
   13.600   9.971E+00
   13.700   1.032E+01
   13.800   1.066E+01
   13.900   1.099E+01
   14.000   1.132E+01
   14.100   1.163E+01
   14.200   1.192E+01
   14.300   1.219E+01
   14.400   1.244E+01
   14.500   1.267E+01
   14.600   1.287E+01
   14.700   1.304E+01
   14.800   1.318E+01
   14.900   1.329E+01
   15.000   1.336E+01
   15.100   1.341E+01
   15.200   1.343E+01
   15.300   1.341E+01
   15.400   1.337E+01
   15.500   1.330E+01
   15.600   1.321E+01
   15.700   1.310E+01
   15.800   1.297E+01
   15.900   1.282E+01
   16.000   1.266E+01
   16.100   1.248E+01
   16.200   1.229E+01
   16.300   1.210E+01
   16.400   1.189E+01
   16.500   1.168E+01
   16.600   1.147E+01
   16.700   1.125E+01
   16.800   1.102E+01
   16.900   1.080E+01
   17.000   1.057E+01
   17.100   1.033E+01
   17.200   1.010E+01
   17.300   9.865E+00
   17.400   9.630E+00
   17.500   9.395E+00
   17.600   9.161E+00
   17.700   8.928E+00
   17.800   8.697E+00
   17.900   8.469E+00
   18.000   8.243E+00
   18.100   8.020E+00
   18.200   7.800E+00
   18.300   7.584E+00
   18.400   7.372E+00
   18.500   7.164E+00
   18.600   6.960E+00
   18.700   6.761E+00
   18.800   6.565E+00
   18.900   6.375E+00
   19.000   6.188E+00
   19.100   6.007E+00
   19.200   5.829E+00
   19.300   5.656E+00
   19.400   5.488E+00
   19.500   5.324E+00
   19.600   5.164E+00
   19.700   5.009E+00
   19.800   4.858E+00
   19.900   4.712E+00
   20.000   4.570E+00
   20.100   4.433E+00
   20.200   4.299E+00
   20.300   4.171E+00
   20.400   4.046E+00
   20.500   3.926E+00
   20.600   3.810E+00
   20.700   3.698E+00
   20.800   3.590E+00
   20.900   3.486E+00
   21.000   3.385E+00
   21.100   3.289E+00
   21.200   3.196E+00
   21.300   3.107E+00
   21.400   3.021E+00
   21.500   2.939E+00
   21.600   2.860E+00
   21.700   2.784E+00
   21.800   2.711E+00
   21.900   2.640E+00
   22.000   2.573E+00
   22.100   2.508E+00
   22.200   2.445E+00
   22.300   2.385E+00
   22.400   2.327E+00
   22.500   2.271E+00
   22.600   2.218E+00
   22.700   2.166E+00
   22.800   2.116E+00
   22.900   2.068E+00
   23.000   2.022E+00
   23.100   1.977E+00
   23.200   1.934E+00
   23.300   1.893E+00
   23.400   1.852E+00
   23.500   1.814E+00
   23.600   1.776E+00
   23.700   1.740E+00
   23.800   1.705E+00
   23.900   1.671E+00
   24.000   1.638E+00
   24.100   1.606E+00
   24.200   1.575E+00
   24.300   1.545E+00
   24.400   1.516E+00
   24.500   1.488E+00
   24.600   1.461E+00
   24.700   1.435E+00
   24.800   1.409E+00
   24.900   1.384E+00
   25.000   1.360E+00
   25.100   1.336E+00
   25.200   1.313E+00
   25.300   1.291E+00
   25.400   1.270E+00
   25.500   1.249E+00
   25.600   1.228E+00
   25.700   1.208E+00
   25.800   1.189E+00
   25.900   1.170E+00
   26.000   1.152E+00
   26.100   1.134E+00
   26.200   1.117E+00
   26.300   1.100E+00
   26.400   1.083E+00
   26.500   1.067E+00
   26.600   1.051E+00
   26.700   1.036E+00
   26.800   1.021E+00
   26.900   1.007E+00
   27.000   9.923E-01
   27.100   9.784E-01
   27.200   9.649E-01
   27.300   9.517E-01
   27.400   9.388E-01
   27.500   9.262E-01
   27.600   9.138E-01
   27.700   9.018E-01
   27.800   8.900E-01
   27.900   8.785E-01
   28.000   8.673E-01
   28.100   8.562E-01
   28.200   8.454E-01
   28.300   8.348E-01
   28.400   8.245E-01
   28.500   8.143E-01
   28.600   8.043E-01
   28.700   7.945E-01
   28.800   7.849E-01
   28.900   7.754E-01
   29.000   7.661E-01
   29.100   7.569E-01
   29.200   7.479E-01
   29.300   7.391E-01
   29.400   7.303E-01
   29.500   7.217E-01
   29.600   7.133E-01
   29.700   7.050E-01
   29.800   6.968E-01
   29.900   6.888E-01
   30.000   6.809E-01
 
 Z=  47 A= 121  D1M-QRPA-Inter
 E[MeV]  fQRPA[mb/MeV]
    0.100   1.054E-04
    0.200   4.218E-04
    0.300   9.495E-04
    0.400   1.689E-03
    0.500   2.642E-03
    0.600   3.809E-03
    0.700   5.192E-03
    0.800   6.792E-03
    0.900   8.612E-03
    1.000   1.065E-02
    1.100   1.292E-02
    1.200   1.541E-02
    1.300   1.814E-02
    1.400   2.110E-02
    1.500   2.430E-02
    1.600   2.774E-02
    1.700   3.143E-02
    1.800   3.537E-02
    1.900   3.957E-02
    2.000   4.404E-02
    2.100   4.877E-02
    2.200   5.378E-02
    2.300   5.908E-02
    2.400   6.467E-02
    2.500   7.055E-02
    2.600   7.675E-02
    2.700   8.326E-02
    2.800   9.011E-02
    2.900   9.729E-02
    3.000   1.048E-01
    3.100   1.127E-01
    3.200   1.210E-01
    3.300   1.296E-01
    3.400   1.387E-01
    3.500   1.481E-01
    3.600   1.580E-01
    3.700   1.684E-01
    3.800   1.792E-01
    3.900   1.905E-01
    4.000   2.023E-01
    4.100   2.146E-01
    4.200   2.275E-01
    4.300   2.410E-01
    4.400   2.550E-01
    4.500   2.697E-01
    4.600   2.850E-01
    4.700   3.010E-01
    4.800   3.178E-01
    4.900   3.352E-01
    5.000   3.535E-01
    5.100   3.726E-01
    5.200   3.925E-01
    5.300   4.134E-01
    5.400   4.351E-01
    5.500   4.579E-01
    5.600   4.817E-01
    5.700   5.066E-01
    5.800   5.327E-01
    5.900   5.599E-01
    6.000   5.884E-01
    6.100   6.182E-01
    6.200   6.494E-01
    6.300   6.820E-01
    6.400   7.160E-01
    6.500   7.516E-01
    6.600   7.888E-01
    6.700   8.277E-01
    6.800   8.682E-01
    6.900   9.105E-01
    7.000   9.546E-01
    7.100   1.001E+00
    7.200   1.048E+00
    7.300   1.098E+00
    7.400   1.150E+00
    7.500   1.203E+00
    7.600   1.259E+00
    7.700   1.316E+00
    7.800   1.375E+00
    7.900   1.437E+00
    8.000   1.500E+00
    8.100   1.566E+00
    8.200   1.633E+00
    8.300   1.703E+00
    8.400   1.775E+00
    8.500   1.849E+00
    8.600   1.925E+00
    8.700   2.004E+00
    8.800   2.086E+00
    8.900   2.170E+00
    9.000   2.257E+00
    9.100   2.347E+00
    9.200   2.441E+00
    9.300   2.538E+00
    9.400   2.639E+00
    9.500   2.744E+00
    9.600   2.854E+00
    9.700   2.968E+00
    9.800   3.087E+00
    9.900   3.211E+00
   10.000   3.341E+00
   10.100   3.477E+00
   10.200   3.619E+00
   10.300   3.768E+00
   10.400   3.923E+00
   10.500   4.086E+00
   10.600   4.256E+00
   10.700   4.434E+00
   10.800   4.619E+00
   10.900   4.814E+00
   11.000   5.017E+00
   11.100   5.229E+00
   11.200   5.451E+00
   11.300   5.684E+00
   11.400   5.926E+00
   11.500   6.179E+00
   11.600   6.444E+00
   11.700   6.720E+00
   11.800   7.008E+00
   11.900   7.307E+00
   12.000   7.619E+00
   12.100   7.943E+00
   12.200   8.278E+00
   12.300   8.625E+00
   12.400   8.982E+00
   12.500   9.349E+00
   12.600   9.725E+00
   12.700   1.011E+01
   12.800   1.050E+01
   12.900   1.089E+01
   13.000   1.129E+01
   13.100   1.168E+01
   13.200   1.207E+01
   13.300   1.246E+01
   13.400   1.283E+01
   13.500   1.320E+01
   13.600   1.355E+01
   13.700   1.388E+01
   13.800   1.420E+01
   13.900   1.449E+01
   14.000   1.476E+01
   14.100   1.500E+01
   14.200   1.521E+01
   14.300   1.539E+01
   14.400   1.554E+01
   14.500   1.565E+01
   14.600   1.574E+01
   14.700   1.579E+01
   14.800   1.581E+01
   14.900   1.579E+01
   15.000   1.575E+01
   15.100   1.568E+01
   15.200   1.559E+01
   15.300   1.547E+01
   15.400   1.534E+01
   15.500   1.518E+01
   15.600   1.502E+01
   15.700   1.484E+01
   15.800   1.465E+01
   15.900   1.446E+01
   16.000   1.426E+01
   16.100   1.405E+01
   16.200   1.385E+01
   16.300   1.364E+01
   16.400   1.343E+01
   16.500   1.322E+01
   16.600   1.301E+01
   16.700   1.280E+01
   16.800   1.258E+01
   16.900   1.237E+01
   17.000   1.215E+01
   17.100   1.194E+01
   17.200   1.172E+01
   17.300   1.150E+01
   17.400   1.127E+01
   17.500   1.105E+01
   17.600   1.083E+01
   17.700   1.060E+01
   17.800   1.038E+01
   17.900   1.015E+01
   18.000   9.927E+00
   18.100   9.703E+00
   18.200   9.481E+00
   18.300   9.260E+00
   18.400   9.042E+00
   18.500   8.826E+00
   18.600   8.612E+00
   18.700   8.401E+00
   18.800   8.192E+00
   18.900   7.987E+00
   19.000   7.784E+00
   19.100   7.585E+00
   19.200   7.388E+00
   19.300   7.195E+00
   19.400   7.004E+00
   19.500   6.816E+00
   19.600   6.632E+00
   19.700   6.451E+00
   19.800   6.274E+00
   19.900   6.100E+00
   20.000   5.929E+00
   20.100   5.763E+00
   20.200   5.600E+00
   20.300   5.442E+00
   20.400   5.287E+00
   20.500   5.137E+00
   20.600   4.992E+00
   20.700   4.850E+00
   20.800   4.713E+00
   20.900   4.581E+00
   21.000   4.453E+00
   21.100   4.330E+00
   21.200   4.210E+00
   21.300   4.095E+00
   21.400   3.984E+00
   21.500   3.878E+00
   21.600   3.775E+00
   21.700   3.676E+00
   21.800   3.580E+00
   21.900   3.489E+00
   22.000   3.400E+00
   22.100   3.315E+00
   22.200   3.233E+00
   22.300   3.155E+00
   22.400   3.079E+00
   22.500   3.005E+00
   22.600   2.935E+00
   22.700   2.867E+00
   22.800   2.802E+00
   22.900   2.738E+00
   23.000   2.678E+00
   23.100   2.619E+00
   23.200   2.562E+00
   23.300   2.507E+00
   23.400   2.454E+00
   23.500   2.403E+00
   23.600   2.354E+00
   23.700   2.306E+00
   23.800   2.259E+00
   23.900   2.215E+00
   24.000   2.171E+00
   24.100   2.129E+00
   24.200   2.089E+00
   24.300   2.049E+00
   24.400   2.011E+00
   24.500   1.974E+00
   24.600   1.938E+00
   24.700   1.903E+00
   24.800   1.869E+00
   24.900   1.836E+00
   25.000   1.804E+00
   25.100   1.773E+00
   25.200   1.743E+00
   25.300   1.713E+00
   25.400   1.685E+00
   25.500   1.657E+00
   25.600   1.630E+00
   25.700   1.603E+00
   25.800   1.578E+00
   25.900   1.553E+00
   26.000   1.528E+00
   26.100   1.505E+00
   26.200   1.482E+00
   26.300   1.459E+00
   26.400   1.437E+00
   26.500   1.416E+00
   26.600   1.395E+00
   26.700   1.374E+00
   26.800   1.354E+00
   26.900   1.335E+00
   27.000   1.316E+00
   27.100   1.297E+00
   27.200   1.279E+00
   27.300   1.262E+00
   27.400   1.244E+00
   27.500   1.227E+00
   27.600   1.211E+00
   27.700   1.194E+00
   27.800   1.179E+00
   27.900   1.163E+00
   28.000   1.148E+00
   28.100   1.133E+00
   28.200   1.119E+00
   28.300   1.104E+00
   28.400   1.090E+00
   28.500   1.077E+00
   28.600   1.063E+00
   28.700   1.050E+00
   28.800   1.037E+00
   28.900   1.025E+00
   29.000   1.012E+00
   29.100   1.000E+00
   29.200   9.885E-01
   29.300   9.769E-01
   29.400   9.655E-01
   29.500   9.543E-01
   29.600   9.433E-01
   29.700   9.325E-01
   29.800   9.220E-01
   29.900   9.116E-01
   30.000   9.014E-01
 
 Z=  47 A= 122  D1M-QRPA-Inter
 E[MeV]  fQRPA[mb/MeV]
    0.100   6.110E-05
    0.200   2.445E-04
    0.300   5.503E-04
    0.400   9.791E-04
    0.500   1.531E-03
    0.600   2.207E-03
    0.700   3.008E-03
    0.800   3.935E-03
    0.900   4.989E-03
    1.000   6.172E-03
    1.100   7.484E-03
    1.200   8.927E-03
    1.300   1.050E-02
    1.400   1.222E-02
    1.500   1.406E-02
    1.600   1.605E-02
    1.700   1.818E-02
    1.800   2.046E-02
    1.900   2.288E-02
    2.000   2.546E-02
    2.100   2.819E-02
    2.200   3.108E-02
    2.300   3.413E-02
    2.400   3.734E-02
    2.500   4.073E-02
    2.600   4.429E-02
    2.700   4.803E-02
    2.800   5.196E-02
    2.900   5.608E-02
    3.000   6.039E-02
    3.100   6.491E-02
    3.200   6.964E-02
    3.300   7.459E-02
    3.400   7.976E-02
    3.500   8.517E-02
    3.600   9.081E-02
    3.700   9.671E-02
    3.800   1.029E-01
    3.900   1.093E-01
    4.000   1.160E-01
    4.100   1.230E-01
    4.200   1.303E-01
    4.300   1.379E-01
    4.400   1.459E-01
    4.500   1.542E-01
    4.600   1.629E-01
    4.700   1.719E-01
    4.800   1.814E-01
    4.900   1.912E-01
    5.000   2.015E-01
    5.100   2.123E-01
    5.200   2.235E-01
    5.300   2.352E-01
    5.400   2.475E-01
    5.500   2.603E-01
    5.600   2.737E-01
    5.700   2.877E-01
    5.800   3.023E-01
    5.900   3.176E-01
    6.000   3.337E-01
    6.100   3.504E-01
    6.200   3.680E-01
    6.300   3.864E-01
    6.400   4.056E-01
    6.500   4.258E-01
    6.600   4.469E-01
    6.700   4.691E-01
    6.800   4.922E-01
    6.900   5.165E-01
    7.000   5.419E-01
    7.100   5.685E-01
    7.200   5.963E-01
    7.300   6.255E-01
    7.400   6.559E-01
    7.500   6.877E-01
    7.600   7.209E-01
    7.700   7.555E-01
    7.800   7.916E-01
    7.900   8.292E-01
    8.000   8.682E-01
    8.100   9.088E-01
    8.200   9.508E-01
    8.300   9.943E-01
    8.400   1.039E+00
    8.500   1.086E+00
    8.600   1.134E+00
    8.700   1.183E+00
    8.800   1.234E+00
    8.900   1.286E+00
    9.000   1.339E+00
    9.100   1.394E+00
    9.200   1.451E+00
    9.300   1.509E+00
    9.400   1.569E+00
    9.500   1.630E+00
    9.600   1.694E+00
    9.700   1.759E+00
    9.800   1.827E+00
    9.900   1.897E+00
   10.000   1.970E+00
   10.100   2.045E+00
   10.200   2.124E+00
   10.300   2.205E+00
   10.400   2.291E+00
   10.500   2.380E+00
   10.600   2.473E+00
   10.700   2.570E+00
   10.800   2.672E+00
   10.900   2.779E+00
   11.000   2.890E+00
   11.100   3.008E+00
   11.200   3.131E+00
   11.300   3.260E+00
   11.400   3.395E+00
   11.500   3.536E+00
   11.600   3.685E+00
   11.700   3.840E+00
   11.800   4.002E+00
   11.900   4.171E+00
   12.000   4.348E+00
   12.100   4.533E+00
   12.200   4.726E+00
   12.300   4.927E+00
   12.400   5.136E+00
   12.500   5.354E+00
   12.600   5.581E+00
   12.700   5.816E+00
   12.800   6.061E+00
   12.900   6.315E+00
   13.000   6.578E+00
   13.100   6.850E+00
   13.200   7.131E+00
   13.300   7.420E+00
   13.400   7.717E+00
   13.500   8.022E+00
   13.600   8.332E+00
   13.700   8.647E+00
   13.800   8.966E+00
   13.900   9.288E+00
   14.000   9.610E+00
   14.100   9.930E+00
   14.200   1.025E+01
   14.300   1.056E+01
   14.400   1.086E+01
   14.500   1.115E+01
   14.600   1.142E+01
   14.700   1.168E+01
   14.800   1.191E+01
   14.900   1.213E+01
   15.000   1.232E+01
   15.100   1.248E+01
   15.200   1.261E+01
   15.300   1.272E+01
   15.400   1.280E+01
   15.500   1.285E+01
   15.600   1.287E+01
   15.700   1.287E+01
   15.800   1.285E+01
   15.900   1.280E+01
   16.000   1.274E+01
   16.100   1.265E+01
   16.200   1.255E+01
   16.300   1.243E+01
   16.400   1.230E+01
   16.500   1.215E+01
   16.600   1.200E+01
   16.700   1.183E+01
   16.800   1.166E+01
   16.900   1.147E+01
   17.000   1.128E+01
   17.100   1.109E+01
   17.200   1.089E+01
   17.300   1.068E+01
   17.400   1.047E+01
   17.500   1.026E+01
   17.600   1.005E+01
   17.700   9.835E+00
   17.800   9.623E+00
   17.900   9.411E+00
   18.000   9.201E+00
   18.100   8.993E+00
   18.200   8.787E+00
   18.300   8.585E+00
   18.400   8.385E+00
   18.500   8.188E+00
   18.600   7.994E+00
   18.700   7.802E+00
   18.800   7.613E+00
   18.900   7.427E+00
   19.000   7.242E+00
   19.100   7.059E+00
   19.200   6.878E+00
   19.300   6.698E+00
   19.400   6.520E+00
   19.500   6.344E+00
   19.600   6.170E+00
   19.700   5.997E+00
   19.800   5.827E+00
   19.900   5.659E+00
   20.000   5.493E+00
   20.100   5.330E+00
   20.200   5.170E+00
   20.300   5.012E+00
   20.400   4.858E+00
   20.500   4.707E+00
   20.600   4.560E+00
   20.700   4.416E+00
   20.800   4.276E+00
   20.900   4.140E+00
   21.000   4.008E+00
   21.100   3.880E+00
   21.200   3.757E+00
   21.300   3.637E+00
   21.400   3.522E+00
   21.500   3.412E+00
   21.600   3.305E+00
   21.700   3.203E+00
   21.800   3.105E+00
   21.900   3.011E+00
   22.000   2.921E+00
   22.100   2.834E+00
   22.200   2.751E+00
   22.300   2.672E+00
   22.400   2.596E+00
   22.500   2.524E+00
   22.600   2.454E+00
   22.700   2.388E+00
   22.800   2.324E+00
   22.900   2.263E+00
   23.000   2.204E+00
   23.100   2.148E+00
   23.200   2.094E+00
   23.300   2.043E+00
   23.400   1.993E+00
   23.500   1.945E+00
   23.600   1.899E+00
   23.700   1.855E+00
   23.800   1.813E+00
   23.900   1.772E+00
   24.000   1.732E+00
   24.100   1.694E+00
   24.200   1.658E+00
   24.300   1.622E+00
   24.400   1.588E+00
   24.500   1.555E+00
   24.600   1.523E+00
   24.700   1.493E+00
   24.800   1.463E+00
   24.900   1.434E+00
   25.000   1.406E+00
   25.100   1.379E+00
   25.200   1.353E+00
   25.300   1.328E+00
   25.400   1.303E+00
   25.500   1.280E+00
   25.600   1.257E+00
   25.700   1.234E+00
   25.800   1.212E+00
   25.900   1.191E+00
   26.000   1.171E+00
   26.100   1.151E+00
   26.200   1.132E+00
   26.300   1.113E+00
   26.400   1.094E+00
   26.500   1.077E+00
   26.600   1.059E+00
   26.700   1.042E+00
   26.800   1.026E+00
   26.900   1.010E+00
   27.000   9.943E-01
   27.100   9.790E-01
   27.200   9.642E-01
   27.300   9.498E-01
   27.400   9.356E-01
   27.500   9.219E-01
   27.600   9.085E-01
   27.700   8.953E-01
   27.800   8.825E-01
   27.900   8.700E-01
   28.000   8.578E-01
   28.100   8.459E-01
   28.200   8.342E-01
   28.300   8.229E-01
   28.400   8.117E-01
   28.500   8.008E-01
   28.600   7.902E-01
   28.700   7.797E-01
   28.800   7.695E-01
   28.900   7.596E-01
   29.000   7.498E-01
   29.100   7.402E-01
   29.200   7.309E-01
   29.300   7.217E-01
   29.400   7.127E-01
   29.500   7.039E-01
   29.600   6.953E-01
   29.700   6.868E-01
   29.800   6.786E-01
   29.900   6.704E-01
   30.000   6.625E-01
 
 Z=  47 A= 123  D1M-QRPA-Inter
 E[MeV]  fQRPA[mb/MeV]
    0.100   5.684E-05
    0.200   2.274E-04
    0.300   5.119E-04
    0.400   9.107E-04
    0.500   1.424E-03
    0.600   2.053E-03
    0.700   2.798E-03
    0.800   3.659E-03
    0.900   4.639E-03
    1.000   5.737E-03
    1.100   6.956E-03
    1.200   8.296E-03
    1.300   9.760E-03
    1.400   1.135E-02
    1.500   1.306E-02
    1.600   1.491E-02
    1.700   1.688E-02
    1.800   1.899E-02
    1.900   2.124E-02
    2.000   2.362E-02
    2.100   2.614E-02
    2.200   2.881E-02
    2.300   3.163E-02
    2.400   3.460E-02
    2.500   3.773E-02
    2.600   4.101E-02
    2.700   4.446E-02
    2.800   4.808E-02
    2.900   5.187E-02
    3.000   5.584E-02
    3.100   5.999E-02
    3.200   6.434E-02
    3.300   6.888E-02
    3.400   7.362E-02
    3.500   7.857E-02
    3.600   8.374E-02
    3.700   8.914E-02
    3.800   9.476E-02
    3.900   1.006E-01
    4.000   1.068E-01
    4.100   1.131E-01
    4.200   1.198E-01
    4.300   1.267E-01
    4.400   1.340E-01
    4.500   1.415E-01
    4.600   1.494E-01
    4.700   1.576E-01
    4.800   1.661E-01
    4.900   1.750E-01
    5.000   1.844E-01
    5.100   1.941E-01
    5.200   2.042E-01
    5.300   2.148E-01
    5.400   2.258E-01
    5.500   2.374E-01
    5.600   2.495E-01
    5.700   2.621E-01
    5.800   2.753E-01
    5.900   2.891E-01
    6.000   3.036E-01
    6.100   3.188E-01
    6.200   3.346E-01
    6.300   3.513E-01
    6.400   3.688E-01
    6.500   3.871E-01
    6.600   4.063E-01
    6.700   4.266E-01
    6.800   4.478E-01
    6.900   4.702E-01
    7.000   4.937E-01
    7.100   5.184E-01
    7.200   5.444E-01
    7.300   5.717E-01
    7.400   6.005E-01
    7.500   6.308E-01
    7.600   6.626E-01
    7.700   6.960E-01
    7.800   7.311E-01
    7.900   7.678E-01
    8.000   8.062E-01
    8.100   8.464E-01
    8.200   8.882E-01
    8.300   9.316E-01
    8.400   9.767E-01
    8.500   1.023E+00
    8.600   1.071E+00
    8.700   1.121E+00
    8.800   1.171E+00
    8.900   1.223E+00
    9.000   1.276E+00
    9.100   1.329E+00
    9.200   1.384E+00
    9.300   1.440E+00
    9.400   1.497E+00
    9.500   1.554E+00
    9.600   1.613E+00
    9.700   1.674E+00
    9.800   1.735E+00
    9.900   1.798E+00
   10.000   1.863E+00
   10.100   1.930E+00
   10.200   2.000E+00
   10.300   2.072E+00
   10.400   2.146E+00
   10.500   2.224E+00
   10.600   2.305E+00
   10.700   2.391E+00
   10.800   2.480E+00
   10.900   2.574E+00
   11.000   2.672E+00
   11.100   2.776E+00
   11.200   2.885E+00
   11.300   3.000E+00
   11.400   3.121E+00
   11.500   3.248E+00
   11.600   3.381E+00
   11.700   3.521E+00
   11.800   3.667E+00
   11.900   3.821E+00
   12.000   3.982E+00
   12.100   4.152E+00
   12.200   4.329E+00
   12.300   4.516E+00
   12.400   4.713E+00
   12.500   4.920E+00
   12.600   5.139E+00
   12.700   5.371E+00
   12.800   5.616E+00
   12.900   5.877E+00
   13.000   6.154E+00
   13.100   6.448E+00
   13.200   6.761E+00
   13.300   7.094E+00
   13.400   7.448E+00
   13.500   7.824E+00
   13.600   8.222E+00
   13.700   8.643E+00
   13.800   9.087E+00
   13.900   9.553E+00
   14.000   1.004E+01
   14.100   1.055E+01
   14.200   1.108E+01
   14.300   1.162E+01
   14.400   1.217E+01
   14.500   1.274E+01
   14.600   1.330E+01
   14.700   1.386E+01
   14.800   1.441E+01
   14.900   1.494E+01
   15.000   1.545E+01
   15.100   1.593E+01
   15.200   1.638E+01
   15.300   1.678E+01
   15.400   1.714E+01
   15.500   1.745E+01
   15.600   1.771E+01
   15.700   1.792E+01
   15.800   1.808E+01
   15.900   1.820E+01
   16.000   1.826E+01
   16.100   1.828E+01
   16.200   1.825E+01
   16.300   1.818E+01
   16.400   1.807E+01
   16.500   1.793E+01
   16.600   1.776E+01
   16.700   1.756E+01
   16.800   1.733E+01
   16.900   1.708E+01
   17.000   1.681E+01
   17.100   1.653E+01
   17.200   1.623E+01
   17.300   1.592E+01
   17.400   1.561E+01
   17.500   1.529E+01
   17.600   1.496E+01
   17.700   1.464E+01
   17.800   1.432E+01
   17.900   1.400E+01
   18.000   1.369E+01
   18.100   1.338E+01
   18.200   1.307E+01
   18.300   1.277E+01
   18.400   1.248E+01
   18.500   1.219E+01
   18.600   1.191E+01
   18.700   1.163E+01
   18.800   1.135E+01
   18.900   1.108E+01
   19.000   1.081E+01
   19.100   1.054E+01
   19.200   1.027E+01
   19.300   1.001E+01
   19.400   9.741E+00
   19.500   9.476E+00
   19.600   9.211E+00
   19.700   8.947E+00
   19.800   8.685E+00
   19.900   8.424E+00
   20.000   8.166E+00
   20.100   7.911E+00
   20.200   7.658E+00
   20.300   7.409E+00
   20.400   7.163E+00
   20.500   6.921E+00
   20.600   6.684E+00
   20.700   6.452E+00
   20.800   6.225E+00
   20.900   6.004E+00
   21.000   5.789E+00
   21.100   5.581E+00
   21.200   5.379E+00
   21.300   5.184E+00
   21.400   4.997E+00
   21.500   4.817E+00
   21.600   4.644E+00
   21.700   4.479E+00
   21.800   4.320E+00
   21.900   4.169E+00
   22.000   4.025E+00
   22.100   3.888E+00
   22.200   3.757E+00
   22.300   3.633E+00
   22.400   3.514E+00
   22.500   3.401E+00
   22.600   3.294E+00
   22.700   3.191E+00
   22.800   3.094E+00
   22.900   3.001E+00
   23.000   2.913E+00
   23.100   2.828E+00
   23.200   2.747E+00
   23.300   2.670E+00
   23.400   2.597E+00
   23.500   2.527E+00
   23.600   2.459E+00
   23.700   2.395E+00
   23.800   2.333E+00
   23.900   2.274E+00
   24.000   2.218E+00
   24.100   2.163E+00
   24.200   2.111E+00
   24.300   2.061E+00
   24.400   2.013E+00
   24.500   1.966E+00
   24.600   1.922E+00
   24.700   1.879E+00
   24.800   1.837E+00
   24.900   1.798E+00
   25.000   1.759E+00
   25.100   1.722E+00
   25.200   1.686E+00
   25.300   1.652E+00
   25.400   1.618E+00
   25.500   1.586E+00
   25.600   1.555E+00
   25.700   1.524E+00
   25.800   1.495E+00
   25.900   1.467E+00
   26.000   1.439E+00
   26.100   1.413E+00
   26.200   1.387E+00
   26.300   1.362E+00
   26.400   1.337E+00
   26.500   1.314E+00
   26.600   1.291E+00
   26.700   1.269E+00
   26.800   1.247E+00
   26.900   1.226E+00
   27.000   1.206E+00
   27.100   1.186E+00
   27.200   1.166E+00
   27.300   1.147E+00
   27.400   1.129E+00
   27.500   1.111E+00
   27.600   1.094E+00
   27.700   1.077E+00
   27.800   1.060E+00
   27.900   1.044E+00
   28.000   1.029E+00
   28.100   1.013E+00
   28.200   9.985E-01
   28.300   9.839E-01
   28.400   9.697E-01
   28.500   9.558E-01
   28.600   9.422E-01
   28.700   9.290E-01
   28.800   9.160E-01
   28.900   9.034E-01
   29.000   8.910E-01
   29.100   8.790E-01
   29.200   8.671E-01
   29.300   8.556E-01
   29.400   8.443E-01
   29.500   8.332E-01
   29.600   8.224E-01
   29.700   8.118E-01
   29.800   8.014E-01
   29.900   7.913E-01
   30.000   7.813E-01
 
 Z=  47 A= 124  D1M-QRPA-Inter
 E[MeV]  fQRPA[mb/MeV]
    0.100   4.454E-05
    0.200   1.782E-04
    0.300   4.012E-04
    0.400   7.137E-04
    0.500   1.116E-03
    0.600   1.609E-03
    0.700   2.193E-03
    0.800   2.868E-03
    0.900   3.636E-03
    1.000   4.497E-03
    1.100   5.452E-03
    1.200   6.503E-03
    1.300   7.650E-03
    1.400   8.896E-03
    1.500   1.024E-02
    1.600   1.169E-02
    1.700   1.324E-02
    1.800   1.489E-02
    1.900   1.665E-02
    2.000   1.852E-02
    2.100   2.050E-02
    2.200   2.260E-02
    2.300   2.481E-02
    2.400   2.714E-02
    2.500   2.959E-02
    2.600   3.217E-02
    2.700   3.487E-02
    2.800   3.771E-02
    2.900   4.068E-02
    3.000   4.380E-02
    3.100   4.706E-02
    3.200   5.046E-02
    3.300   5.402E-02
    3.400   5.774E-02
    3.500   6.162E-02
    3.600   6.567E-02
    3.700   6.989E-02
    3.800   7.429E-02
    3.900   7.889E-02
    4.000   8.367E-02
    4.100   8.866E-02
    4.200   9.387E-02
    4.300   9.929E-02
    4.400   1.049E-01
    4.500   1.108E-01
    4.600   1.170E-01
    4.700   1.234E-01
    4.800   1.301E-01
    4.900   1.370E-01
    5.000   1.443E-01
    5.100   1.519E-01
    5.200   1.598E-01
    5.300   1.681E-01
    5.400   1.768E-01
    5.500   1.858E-01
    5.600   1.952E-01
    5.700   2.051E-01
    5.800   2.154E-01
    5.900   2.262E-01
    6.000   2.375E-01
    6.100   2.494E-01
    6.200   2.618E-01
    6.300   2.748E-01
    6.400   2.885E-01
    6.500   3.028E-01
    6.600   3.179E-01
    6.700   3.337E-01
    6.800   3.503E-01
    6.900   3.678E-01
    7.000   3.861E-01
    7.100   4.054E-01
    7.200   4.257E-01
    7.300   4.471E-01
    7.400   4.695E-01
    7.500   4.931E-01
    7.600   5.178E-01
    7.700   5.438E-01
    7.800   5.710E-01
    7.900   5.995E-01
    8.000   6.292E-01
    8.100   6.602E-01
    8.200   6.924E-01
    8.300   7.259E-01
    8.400   7.605E-01
    8.500   7.962E-01
    8.600   8.329E-01
    8.700   8.706E-01
    8.800   9.092E-01
    8.900   9.487E-01
    9.000   9.891E-01
    9.100   1.030E+00
    9.200   1.072E+00
    9.300   1.115E+00
    9.400   1.159E+00
    9.500   1.203E+00
    9.600   1.249E+00
    9.700   1.296E+00
    9.800   1.344E+00
    9.900   1.394E+00
   10.000   1.445E+00
   10.100   1.497E+00
   10.200   1.552E+00
   10.300   1.609E+00
   10.400   1.668E+00
   10.500   1.729E+00
   10.600   1.794E+00
   10.700   1.862E+00
   10.800   1.933E+00
   10.900   2.007E+00
   11.000   2.086E+00
   11.100   2.169E+00
   11.200   2.256E+00
   11.300   2.348E+00
   11.400   2.445E+00
   11.500   2.548E+00
   11.600   2.655E+00
   11.700   2.769E+00
   11.800   2.888E+00
   11.900   3.014E+00
   12.000   3.145E+00
   12.100   3.283E+00
   12.200   3.428E+00
   12.300   3.580E+00
   12.400   3.740E+00
   12.500   3.907E+00
   12.600   4.083E+00
   12.700   4.268E+00
   12.800   4.462E+00
   12.900   4.668E+00
   13.000   4.884E+00
   13.100   5.113E+00
   13.200   5.355E+00
   13.300   5.610E+00
   13.400   5.880E+00
   13.500   6.165E+00
   13.600   6.466E+00
   13.700   6.782E+00
   13.800   7.115E+00
   13.900   7.464E+00
   14.000   7.827E+00
   14.100   8.205E+00
   14.200   8.596E+00
   14.300   8.997E+00
   14.400   9.407E+00
   14.500   9.822E+00
   14.600   1.024E+01
   14.700   1.065E+01
   14.800   1.106E+01
   14.900   1.146E+01
   15.000   1.184E+01
   15.100   1.221E+01
   15.200   1.255E+01
   15.300   1.286E+01
   15.400   1.315E+01
   15.500   1.341E+01
   15.600   1.363E+01
   15.700   1.382E+01
   15.800   1.398E+01
   15.900   1.410E+01
   16.000   1.418E+01
   16.100   1.423E+01
   16.200   1.424E+01
   16.300   1.421E+01
   16.400   1.415E+01
   16.500   1.406E+01
   16.600   1.394E+01
   16.700   1.379E+01
   16.800   1.361E+01
   16.900   1.342E+01
   17.000   1.320E+01
   17.100   1.296E+01
   17.200   1.272E+01
   17.300   1.246E+01
   17.400   1.219E+01
   17.500   1.192E+01
   17.600   1.165E+01
   17.700   1.137E+01
   17.800   1.110E+01
   17.900   1.083E+01
   18.000   1.056E+01
   18.100   1.029E+01
   18.200   1.004E+01
   18.300   9.784E+00
   18.400   9.539E+00
   18.500   9.300E+00
   18.600   9.068E+00
   18.700   8.842E+00
   18.800   8.621E+00
   18.900   8.404E+00
   19.000   8.191E+00
   19.100   7.981E+00
   19.200   7.773E+00
   19.300   7.567E+00
   19.400   7.361E+00
   19.500   7.156E+00
   19.600   6.950E+00
   19.700   6.746E+00
   19.800   6.541E+00
   19.900   6.338E+00
   20.000   6.136E+00
   20.100   5.935E+00
   20.200   5.737E+00
   20.300   5.542E+00
   20.400   5.350E+00
   20.500   5.162E+00
   20.600   4.979E+00
   20.700   4.800E+00
   20.800   4.627E+00
   20.900   4.459E+00
   21.000   4.297E+00
   21.100   4.141E+00
   21.200   3.991E+00
   21.300   3.846E+00
   21.400   3.708E+00
   21.500   3.576E+00
   21.600   3.450E+00
   21.700   3.329E+00
   21.800   3.214E+00
   21.900   3.104E+00
   22.000   3.000E+00
   22.100   2.900E+00
   22.200   2.806E+00
   22.300   2.715E+00
   22.400   2.630E+00
   22.500   2.548E+00
   22.600   2.470E+00
   22.700   2.395E+00
   22.800   2.324E+00
   22.900   2.257E+00
   23.000   2.192E+00
   23.100   2.131E+00
   23.200   2.072E+00
   23.300   2.015E+00
   23.400   1.962E+00
   23.500   1.910E+00
   23.600   1.861E+00
   23.700   1.813E+00
   23.800   1.768E+00
   23.900   1.724E+00
   24.000   1.682E+00
   24.100   1.642E+00
   24.200   1.604E+00
   24.300   1.566E+00
   24.400   1.531E+00
   24.500   1.496E+00
   24.600   1.463E+00
   24.700   1.431E+00
   24.800   1.400E+00
   24.900   1.371E+00
   25.000   1.342E+00
   25.100   1.314E+00
   25.200   1.287E+00
   25.300   1.261E+00
   25.400   1.236E+00
   25.500   1.212E+00
   25.600   1.189E+00
   25.700   1.166E+00
   25.800   1.144E+00
   25.900   1.123E+00
   26.000   1.102E+00
   26.100   1.082E+00
   26.200   1.062E+00
   26.300   1.044E+00
   26.400   1.025E+00
   26.500   1.007E+00
   26.600   9.901E-01
   26.700   9.733E-01
   26.800   9.569E-01
   26.900   9.410E-01
   27.000   9.256E-01
   27.100   9.105E-01
   27.200   8.959E-01
   27.300   8.816E-01
   27.400   8.677E-01
   27.500   8.542E-01
   27.600   8.410E-01
   27.700   8.281E-01
   27.800   8.156E-01
   27.900   8.033E-01
   28.000   7.914E-01
   28.100   7.798E-01
   28.200   7.684E-01
   28.300   7.573E-01
   28.400   7.465E-01
   28.500   7.359E-01
   28.600   7.256E-01
   28.700   7.155E-01
   28.800   7.056E-01
   28.900   6.960E-01
   29.000   6.866E-01
   29.100   6.774E-01
   29.200   6.683E-01
   29.300   6.595E-01
   29.400   6.509E-01
   29.500   6.424E-01
   29.600   6.342E-01
   29.700   6.261E-01
   29.800   6.182E-01
   29.900   6.104E-01
   30.000   6.028E-01
 
 Z=  47 A= 125  D1M-QRPA-Inter
 E[MeV]  fQRPA[mb/MeV]
    0.100   5.800E-05
    0.200   2.321E-04
    0.300   5.224E-04
    0.400   9.293E-04
    0.500   1.453E-03
    0.600   2.095E-03
    0.700   2.855E-03
    0.800   3.735E-03
    0.900   4.734E-03
    1.000   5.856E-03
    1.100   7.100E-03
    1.200   8.469E-03
    1.300   9.963E-03
    1.400   1.159E-02
    1.500   1.334E-02
    1.600   1.522E-02
    1.700   1.724E-02
    1.800   1.940E-02
    1.900   2.169E-02
    2.000   2.413E-02
    2.100   2.671E-02
    2.200   2.944E-02
    2.300   3.232E-02
    2.400   3.536E-02
    2.500   3.856E-02
    2.600   4.192E-02
    2.700   4.544E-02
    2.800   4.914E-02
    2.900   5.302E-02
    3.000   5.708E-02
    3.100   6.132E-02
    3.200   6.576E-02
    3.300   7.040E-02
    3.400   7.523E-02
    3.500   8.028E-02
    3.600   8.555E-02
    3.700   9.105E-02
    3.800   9.677E-02
    3.900   1.027E-01
    4.000   1.090E-01
    4.100   1.155E-01
    4.200   1.222E-01
    4.300   1.293E-01
    4.400   1.366E-01
    4.500   1.443E-01
    4.600   1.522E-01
    4.700   1.606E-01
    4.800   1.692E-01
    4.900   1.783E-01
    5.000   1.877E-01
    5.100   1.976E-01
    5.200   2.079E-01
    5.300   2.186E-01
    5.400   2.298E-01
    5.500   2.416E-01
    5.600   2.538E-01
    5.700   2.667E-01
    5.800   2.801E-01
    5.900   2.941E-01
    6.000   3.088E-01
    6.100   3.242E-01
    6.200   3.403E-01
    6.300   3.573E-01
    6.400   3.750E-01
    6.500   3.936E-01
    6.600   4.132E-01
    6.700   4.337E-01
    6.800   4.553E-01
    6.900   4.779E-01
    7.000   5.018E-01
    7.100   5.268E-01
    7.200   5.531E-01
    7.300   5.808E-01
    7.400   6.099E-01
    7.500   6.404E-01
    7.600   6.724E-01
    7.700   7.059E-01
    7.800   7.410E-01
    7.900   7.776E-01
    8.000   8.158E-01
    8.100   8.556E-01
    8.200   8.969E-01
    8.300   9.396E-01
    8.400   9.837E-01
    8.500   1.029E+00
    8.600   1.076E+00
    8.700   1.124E+00
    8.800   1.173E+00
    8.900   1.223E+00
    9.000   1.274E+00
    9.100   1.327E+00
    9.200   1.380E+00
    9.300   1.435E+00
    9.400   1.491E+00
    9.500   1.548E+00
    9.600   1.607E+00
    9.700   1.667E+00
    9.800   1.730E+00
    9.900   1.794E+00
   10.000   1.861E+00
   10.100   1.929E+00
   10.200   2.001E+00
   10.300   2.076E+00
   10.400   2.153E+00
   10.500   2.234E+00
   10.600   2.320E+00
   10.700   2.409E+00
   10.800   2.503E+00
   10.900   2.601E+00
   11.000   2.705E+00
   11.100   2.815E+00
   11.200   2.931E+00
   11.300   3.054E+00
   11.400   3.183E+00
   11.500   3.321E+00
   11.600   3.465E+00
   11.700   3.618E+00
   11.800   3.779E+00
   11.900   3.949E+00
   12.000   4.127E+00
   12.100   4.314E+00
   12.200   4.510E+00
   12.300   4.715E+00
   12.400   4.930E+00
   12.500   5.154E+00
   12.600   5.389E+00
   12.700   5.634E+00
   12.800   5.891E+00
   12.900   6.160E+00
   13.000   6.441E+00
   13.100   6.736E+00
   13.200   7.046E+00
   13.300   7.371E+00
   13.400   7.713E+00
   13.500   8.071E+00
   13.600   8.448E+00
   13.700   8.843E+00
   13.800   9.257E+00
   13.900   9.688E+00
   14.000   1.014E+01
   14.100   1.060E+01
   14.200   1.108E+01
   14.300   1.158E+01
   14.400   1.208E+01
   14.500   1.258E+01
   14.600   1.309E+01
   14.700   1.360E+01
   14.800   1.411E+01
   14.900   1.460E+01
   15.000   1.508E+01
   15.100   1.553E+01
   15.200   1.597E+01
   15.300   1.638E+01
   15.400   1.677E+01
   15.500   1.712E+01
   15.600   1.744E+01
   15.700   1.771E+01
   15.800   1.795E+01
   15.900   1.815E+01
   16.000   1.830E+01
   16.100   1.840E+01
   16.200   1.845E+01
   16.300   1.846E+01
   16.400   1.841E+01
   16.500   1.832E+01
   16.600   1.818E+01
   16.700   1.800E+01
   16.800   1.777E+01
   16.900   1.751E+01
   17.000   1.722E+01
   17.100   1.690E+01
   17.200   1.656E+01
   17.300   1.620E+01
   17.400   1.583E+01
   17.500   1.545E+01
   17.600   1.506E+01
   17.700   1.467E+01
   17.800   1.429E+01
   17.900   1.391E+01
   18.000   1.353E+01
   18.100   1.316E+01
   18.200   1.280E+01
   18.300   1.245E+01
   18.400   1.212E+01
   18.500   1.179E+01
   18.600   1.147E+01
   18.700   1.117E+01
   18.800   1.088E+01
   18.900   1.059E+01
   19.000   1.031E+01
   19.100   1.004E+01
   19.200   9.771E+00
   19.300   9.506E+00
   19.400   9.242E+00
   19.500   8.978E+00
   19.600   8.714E+00
   19.700   8.450E+00
   19.800   8.186E+00
   19.900   7.922E+00
   20.000   7.659E+00
   20.100   7.399E+00
   20.200   7.141E+00
   20.300   6.887E+00
   20.400   6.639E+00
   20.500   6.397E+00
   20.600   6.162E+00
   20.700   5.934E+00
   20.800   5.714E+00
   20.900   5.502E+00
   21.000   5.299E+00
   21.100   5.105E+00
   21.200   4.919E+00
   21.300   4.741E+00
   21.400   4.572E+00
   21.500   4.411E+00
   21.600   4.258E+00
   21.700   4.111E+00
   21.800   3.972E+00
   21.900   3.840E+00
   22.000   3.715E+00
   22.100   3.595E+00
   22.200   3.481E+00
   22.300   3.372E+00
   22.400   3.269E+00
   22.500   3.171E+00
   22.600   3.077E+00
   22.700   2.987E+00
   22.800   2.902E+00
   22.900   2.820E+00
   23.000   2.742E+00
   23.100   2.667E+00
   23.200   2.596E+00
   23.300   2.527E+00
   23.400   2.462E+00
   23.500   2.399E+00
   23.600   2.339E+00
   23.700   2.281E+00
   23.800   2.225E+00
   23.900   2.172E+00
   24.000   2.121E+00
   24.100   2.071E+00
   24.200   2.024E+00
   24.300   1.978E+00
   24.400   1.934E+00
   24.500   1.892E+00
   24.600   1.851E+00
   24.700   1.811E+00
   24.800   1.773E+00
   24.900   1.736E+00
   25.000   1.701E+00
   25.100   1.666E+00
   25.200   1.633E+00
   25.300   1.601E+00
   25.400   1.570E+00
   25.500   1.539E+00
   25.600   1.510E+00
   25.700   1.482E+00
   25.800   1.454E+00
   25.900   1.428E+00
   26.000   1.402E+00
   26.100   1.377E+00
   26.200   1.352E+00
   26.300   1.329E+00
   26.400   1.306E+00
   26.500   1.283E+00
   26.600   1.262E+00
   26.700   1.241E+00
   26.800   1.220E+00
   26.900   1.200E+00
   27.000   1.181E+00
   27.100   1.162E+00
   27.200   1.143E+00
   27.300   1.125E+00
   27.400   1.108E+00
   27.500   1.091E+00
   27.600   1.074E+00
   27.700   1.058E+00
   27.800   1.042E+00
   27.900   1.027E+00
   28.000   1.012E+00
   28.100   9.969E-01
   28.200   9.826E-01
   28.300   9.685E-01
   28.400   9.549E-01
   28.500   9.415E-01
   28.600   9.284E-01
   28.700   9.156E-01
   28.800   9.031E-01
   28.900   8.909E-01
   29.000   8.790E-01
   29.100   8.673E-01
   29.200   8.559E-01
   29.300   8.447E-01
   29.400   8.337E-01
   29.500   8.230E-01
   29.600   8.125E-01
   29.700   8.022E-01
   29.800   7.922E-01
   29.900   7.823E-01
   30.000   7.727E-01
 
