 Z=  49 A= 115  D1M-QRPA
   E[MeV]   fQRPA[mb/MeV]
    0.100   8.397E-05
    0.200   3.361E-04
    0.300   7.573E-04
    0.400   1.349E-03
    0.500   2.112E-03
    0.600   3.050E-03
    0.700   4.165E-03
    0.800   5.461E-03
    0.900   6.941E-03
    1.000   8.611E-03
    1.100   1.047E-02
    1.200   1.254E-02
    1.300   1.481E-02
    1.400   1.729E-02
    1.500   2.000E-02
    1.600   2.293E-02
    1.700   2.610E-02
    1.800   2.952E-02
    1.900   3.320E-02
    2.000   3.713E-02
    2.100   4.135E-02
    2.200   4.584E-02
    2.300   5.062E-02
    2.400   5.571E-02
    2.500   6.109E-02
    2.600   6.678E-02
    2.700   7.278E-02
    2.800   7.908E-02
    2.900   8.567E-02
    3.000   9.256E-02
    3.100   9.971E-02
    3.200   1.071E-01
    3.300   1.148E-01
    3.400   1.226E-01
    3.500   1.306E-01
    3.600   1.388E-01
    3.700   1.472E-01
    3.800   1.556E-01
    3.900   1.641E-01
    4.000   1.727E-01
    4.100   1.813E-01
    4.200   1.900E-01
    4.300   1.989E-01
    4.400   2.078E-01
    4.500   2.168E-01
    4.600   2.260E-01
    4.700   2.353E-01
    4.800   2.449E-01
    4.900   2.548E-01
    5.000   2.650E-01
    5.100   2.756E-01
    5.200   2.866E-01
    5.300   2.981E-01
    5.400   3.101E-01
    5.500   3.226E-01
    5.600   3.357E-01
    5.700   3.494E-01
    5.800   3.637E-01
    5.900   3.787E-01
    6.000   3.942E-01
    6.100   4.104E-01
    6.200   4.273E-01
    6.300   4.448E-01
    6.400   4.629E-01
    6.500   4.816E-01
    6.600   5.010E-01
    6.700   5.210E-01
    6.800   5.417E-01
    6.900   5.632E-01
    7.000   5.854E-01
    7.100   6.084E-01
    7.200   6.324E-01
    7.300   6.574E-01
    7.400   6.835E-01
    7.500   7.108E-01
    7.600   7.394E-01
    7.700   7.693E-01
    7.800   8.007E-01
    7.900   8.336E-01
    8.000   8.681E-01
    8.100   9.043E-01
    8.200   9.421E-01
    8.300   9.817E-01
    8.400   1.023E+00
    8.500   1.066E+00
    8.600   1.111E+00
    8.700   1.158E+00
    8.800   1.207E+00
    8.900   1.257E+00
    9.000   1.310E+00
    9.100   1.364E+00
    9.200   1.421E+00
    9.300   1.480E+00
    9.400   1.542E+00
    9.500   1.606E+00
    9.600   1.673E+00
    9.700   1.743E+00
    9.800   1.816E+00
    9.900   1.892E+00
   10.000   1.971E+00
   10.100   2.055E+00
   10.200   2.142E+00
   10.300   2.234E+00
   10.400   2.330E+00
   10.500   2.430E+00
   10.600   2.535E+00
   10.700   2.646E+00
   10.800   2.761E+00
   10.900   2.883E+00
   11.000   3.010E+00
   11.100   3.143E+00
   11.200   3.283E+00
   11.300   3.429E+00
   11.400   3.583E+00
   11.500   3.744E+00
   11.600   3.913E+00
   11.700   4.090E+00
   11.800   4.276E+00
   11.900   4.473E+00
   12.000   4.679E+00
   12.100   4.897E+00
   12.200   5.128E+00
   12.300   5.371E+00
   12.400   5.629E+00
   12.500   5.902E+00
   12.600   6.191E+00
   12.700   6.498E+00
   12.800   6.823E+00
   12.900   7.167E+00
   13.000   7.531E+00
   13.100   7.916E+00
   13.200   8.321E+00
   13.300   8.746E+00
   13.400   9.191E+00
   13.500   9.655E+00
   13.600   1.013E+01
   13.700   1.063E+01
   13.800   1.113E+01
   13.900   1.164E+01
   14.000   1.216E+01
   14.100   1.267E+01
   14.200   1.316E+01
   14.300   1.364E+01
   14.400   1.410E+01
   14.500   1.453E+01
   14.600   1.491E+01
   14.700   1.525E+01
   14.800   1.555E+01
   14.900   1.579E+01
   15.000   1.597E+01
   15.100   1.610E+01
   15.200   1.618E+01
   15.300   1.621E+01
   15.400   1.618E+01
   15.500   1.612E+01
   15.600   1.601E+01
   15.700   1.587E+01
   15.800   1.570E+01
   15.900   1.550E+01
   16.000   1.528E+01
   16.100   1.505E+01
   16.200   1.480E+01
   16.300   1.453E+01
   16.400   1.426E+01
   16.500   1.397E+01
   16.600   1.367E+01
   16.700   1.336E+01
   16.800   1.304E+01
   16.900   1.271E+01
   17.000   1.238E+01
   17.100   1.203E+01
   17.200   1.169E+01
   17.300   1.134E+01
   17.400   1.099E+01
   17.500   1.064E+01
   17.600   1.029E+01
   17.700   9.949E+00
   17.800   9.615E+00
   17.900   9.289E+00
   18.000   8.972E+00
   18.100   8.665E+00
   18.200   8.368E+00
   18.300   8.082E+00
   18.400   7.805E+00
   18.500   7.539E+00
   18.600   7.283E+00
   18.700   7.035E+00
   18.800   6.797E+00
   18.900   6.567E+00
   19.000   6.346E+00
   19.100   6.132E+00
   19.200   5.925E+00
   19.300   5.726E+00
   19.400   5.534E+00
   19.500   5.348E+00
   19.600   5.169E+00
   19.700   4.996E+00
   19.800   4.830E+00
   19.900   4.670E+00
   20.000   4.516E+00
   20.100   4.367E+00
   20.200   4.225E+00
   20.300   4.088E+00
   20.400   3.956E+00
   20.500   3.830E+00
   20.600   3.709E+00
   20.700   3.592E+00
   20.800   3.480E+00
   20.900   3.372E+00
   21.000   3.269E+00
   21.100   3.170E+00
   21.200   3.074E+00
   21.300   2.983E+00
   21.400   2.895E+00
   21.500   2.810E+00
   21.600   2.729E+00
   21.700   2.651E+00
   21.800   2.577E+00
   21.900   2.505E+00
   22.000   2.436E+00
   22.100   2.370E+00
   22.200   2.307E+00
   22.300   2.246E+00
   22.400   2.188E+00
   22.500   2.132E+00
   22.600   2.078E+00
   22.700   2.027E+00
   22.800   1.977E+00
   22.900   1.929E+00
   23.000   1.883E+00
   23.100   1.839E+00
   23.200   1.797E+00
   23.300   1.756E+00
   23.400   1.717E+00
   23.500   1.679E+00
   23.600   1.642E+00
   23.700   1.607E+00
   23.800   1.573E+00
   23.900   1.540E+00
   24.000   1.508E+00
   24.100   1.477E+00
   24.200   1.448E+00
   24.300   1.419E+00
   24.400   1.391E+00
   24.500   1.364E+00
   24.600   1.338E+00
   24.700   1.313E+00
   24.800   1.289E+00
   24.900   1.265E+00
   25.000   1.242E+00
   25.100   1.220E+00
   25.200   1.198E+00
   25.300   1.177E+00
   25.400   1.156E+00
   25.500   1.137E+00
   25.600   1.117E+00
   25.700   1.099E+00
   25.800   1.080E+00
   25.900   1.063E+00
   26.000   1.045E+00
   26.100   1.028E+00
   26.200   1.012E+00
   26.300   9.962E-01
   26.400   9.807E-01
   26.500   9.655E-01
   26.600   9.508E-01
   26.700   9.364E-01
   26.800   9.223E-01
   26.900   9.087E-01
   27.000   8.953E-01
   27.100   8.823E-01
   27.200   8.695E-01
   27.300   8.571E-01
   27.400   8.450E-01
   27.500   8.331E-01
   27.600   8.215E-01
   27.700   8.102E-01
   27.800   7.991E-01
   27.900   7.883E-01
   28.000   7.777E-01
   28.100   7.674E-01
   28.200   7.572E-01
   28.300   7.473E-01
   28.400   7.376E-01
   28.500   7.281E-01
   28.600   7.188E-01
   28.700   7.097E-01
   28.800   7.008E-01
   28.900   6.921E-01
   29.000   6.835E-01
   29.100   6.751E-01
   29.200   6.669E-01
   29.300   6.588E-01
   29.400   6.509E-01
   29.500   6.432E-01
   29.600   6.356E-01
   29.700   6.281E-01
   29.800   6.208E-01
   29.900   6.137E-01
   30.000   6.066E-01
 
 Z=  49 A= 116  D1M-QRPA-Inter
 E[MeV]  fQRPA[mb/MeV]
    0.100   1.058E-04
    0.200   4.223E-04
    0.300   9.473E-04
    0.400   1.677E-03
    0.500   2.609E-03
    0.600   3.737E-03
    0.700   5.059E-03
    0.800   6.569E-03
    0.900   8.263E-03
    1.000   1.014E-02
    1.100   1.219E-02
    1.200   1.441E-02
    1.300   1.680E-02
    1.400   1.935E-02
    1.500   2.206E-02
    1.600   2.492E-02
    1.700   2.793E-02
    1.800   3.108E-02
    1.900   3.438E-02
    2.000   3.783E-02
    2.100   4.141E-02
    2.200   4.514E-02
    2.300   4.901E-02
    2.400   5.303E-02
    2.500   5.721E-02
    2.600   6.154E-02
    2.700   6.604E-02
    2.800   7.072E-02
    2.900   7.558E-02
    3.000   8.064E-02
    3.100   8.591E-02
    3.200   9.139E-02
    3.300   9.710E-02
    3.400   1.031E-01
    3.500   1.093E-01
    3.600   1.157E-01
    3.700   1.225E-01
    3.800   1.295E-01
    3.900   1.369E-01
    4.000   1.446E-01
    4.100   1.526E-01
    4.200   1.610E-01
    4.300   1.697E-01
    4.400   1.789E-01
    4.500   1.884E-01
    4.600   1.984E-01
    4.700   2.088E-01
    4.800   2.197E-01
    4.900   2.311E-01
    5.000   2.430E-01
    5.100   2.554E-01
    5.200   2.685E-01
    5.300   2.821E-01
    5.400   2.963E-01
    5.500   3.112E-01
    5.600   3.268E-01
    5.700   3.431E-01
    5.800   3.602E-01
    5.900   3.781E-01
    6.000   3.969E-01
    6.100   4.165E-01
    6.200   4.370E-01
    6.300   4.586E-01
    6.400   4.812E-01
    6.500   5.048E-01
    6.600   5.296E-01
    6.700   5.555E-01
    6.800   5.827E-01
    6.900   6.112E-01
    7.000   6.409E-01
    7.100   6.721E-01
    7.200   7.046E-01
    7.300   7.386E-01
    7.400   7.741E-01
    7.500   8.111E-01
    7.600   8.497E-01
    7.700   8.898E-01
    7.800   9.316E-01
    7.900   9.751E-01
    8.000   1.020E+00
    8.100   1.067E+00
    8.200   1.116E+00
    8.300   1.167E+00
    8.400   1.220E+00
    8.500   1.275E+00
    8.600   1.332E+00
    8.700   1.392E+00
    8.800   1.454E+00
    8.900   1.519E+00
    9.000   1.586E+00
    9.100   1.657E+00
    9.200   1.731E+00
    9.300   1.808E+00
    9.400   1.889E+00
    9.500   1.973E+00
    9.600   2.062E+00
    9.700   2.154E+00
    9.800   2.251E+00
    9.900   2.353E+00
   10.000   2.459E+00
   10.100   2.570E+00
   10.200   2.686E+00
   10.300   2.807E+00
   10.400   2.933E+00
   10.500   3.065E+00
   10.600   3.203E+00
   10.700   3.347E+00
   10.800   3.497E+00
   10.900   3.655E+00
   11.000   3.820E+00
   11.100   3.992E+00
   11.200   4.174E+00
   11.300   4.364E+00
   11.400   4.565E+00
   11.500   4.776E+00
   11.600   4.999E+00
   11.700   5.234E+00
   11.800   5.482E+00
   11.900   5.744E+00
   12.000   6.020E+00
   12.100   6.312E+00
   12.200   6.621E+00
   12.300   6.946E+00
   12.400   7.289E+00
   12.500   7.650E+00
   12.600   8.029E+00
   12.700   8.426E+00
   12.800   8.841E+00
   12.900   9.272E+00
   13.000   9.718E+00
   13.100   1.018E+01
   13.200   1.065E+01
   13.300   1.113E+01
   13.400   1.161E+01
   13.500   1.209E+01
   13.600   1.257E+01
   13.700   1.304E+01
   13.800   1.350E+01
   13.900   1.394E+01
   14.000   1.435E+01
   14.100   1.474E+01
   14.200   1.510E+01
   14.300   1.542E+01
   14.400   1.571E+01
   14.500   1.597E+01
   14.600   1.619E+01
   14.700   1.637E+01
   14.800   1.652E+01
   14.900   1.663E+01
   15.000   1.670E+01
   15.100   1.674E+01
   15.200   1.675E+01
   15.300   1.673E+01
   15.400   1.667E+01
   15.500   1.659E+01
   15.600   1.648E+01
   15.700   1.634E+01
   15.800   1.617E+01
   15.900   1.598E+01
   16.000   1.577E+01
   16.100   1.554E+01
   16.200   1.529E+01
   16.300   1.503E+01
   16.400   1.475E+01
   16.500   1.445E+01
   16.600   1.415E+01
   16.700   1.384E+01
   16.800   1.352E+01
   16.900   1.319E+01
   17.000   1.286E+01
   17.100   1.252E+01
   17.200   1.218E+01
   17.300   1.184E+01
   17.400   1.150E+01
   17.500   1.115E+01
   17.600   1.081E+01
   17.700   1.048E+01
   17.800   1.015E+01
   17.900   9.819E+00
   18.000   9.498E+00
   18.100   9.185E+00
   18.200   8.880E+00
   18.300   8.583E+00
   18.400   8.296E+00
   18.500   8.018E+00
   18.600   7.751E+00
   18.700   7.493E+00
   18.800   7.245E+00
   18.900   7.006E+00
   19.000   6.777E+00
   19.100   6.557E+00
   19.200   6.347E+00
   19.300   6.144E+00
   19.400   5.950E+00
   19.500   5.763E+00
   19.600   5.583E+00
   19.700   5.410E+00
   19.800   5.244E+00
   19.900   5.084E+00
   20.000   4.930E+00
   20.100   4.781E+00
   20.200   4.637E+00
   20.300   4.499E+00
   20.400   4.366E+00
   20.500   4.237E+00
   20.600   4.113E+00
   20.700   3.993E+00
   20.800   3.877E+00
   20.900   3.766E+00
   21.000   3.658E+00
   21.100   3.554E+00
   21.200   3.453E+00
   21.300   3.356E+00
   21.400   3.262E+00
   21.500   3.172E+00
   21.600   3.084E+00
   21.700   3.000E+00
   21.800   2.918E+00
   21.900   2.839E+00
   22.000   2.763E+00
   22.100   2.690E+00
   22.200   2.619E+00
   22.300   2.550E+00
   22.400   2.484E+00
   22.500   2.421E+00
   22.600   2.359E+00
   22.700   2.300E+00
   22.800   2.243E+00
   22.900   2.188E+00
   23.000   2.136E+00
   23.100   2.085E+00
   23.200   2.036E+00
   23.300   1.988E+00
   23.400   1.943E+00
   23.500   1.899E+00
   23.600   1.857E+00
   23.700   1.816E+00
   23.800   1.777E+00
   23.900   1.739E+00
   24.000   1.702E+00
   24.100   1.667E+00
   24.200   1.633E+00
   24.300   1.600E+00
   24.400   1.568E+00
   24.500   1.537E+00
   24.600   1.507E+00
   24.700   1.479E+00
   24.800   1.451E+00
   24.900   1.424E+00
   25.000   1.397E+00
   25.100   1.372E+00
   25.200   1.347E+00
   25.300   1.323E+00
   25.400   1.300E+00
   25.500   1.278E+00
   25.600   1.256E+00
   25.700   1.234E+00
   25.800   1.214E+00
   25.900   1.194E+00
   26.000   1.174E+00
   26.100   1.155E+00
   26.200   1.136E+00
   26.300   1.118E+00
   26.400   1.101E+00
   26.500   1.084E+00
   26.600   1.067E+00
   26.700   1.051E+00
   26.800   1.035E+00
   26.900   1.020E+00
   27.000   1.005E+00
   27.100   9.899E-01
   27.200   9.756E-01
   27.300   9.616E-01
   27.400   9.480E-01
   27.500   9.346E-01
   27.600   9.216E-01
   27.700   9.089E-01
   27.800   8.964E-01
   27.900   8.842E-01
   28.000   8.724E-01
   28.100   8.607E-01
   28.200   8.493E-01
   28.300   8.382E-01
   28.400   8.273E-01
   28.500   8.167E-01
   28.600   8.062E-01
   28.700   7.960E-01
   28.800   7.860E-01
   28.900   7.762E-01
   29.000   7.666E-01
   29.100   7.572E-01
   29.200   7.480E-01
   29.300   7.390E-01
   29.400   7.301E-01
   29.500   7.214E-01
   29.600   7.129E-01
   29.700   7.046E-01
   29.800   6.964E-01
   29.900   6.883E-01
   30.000   6.805E-01
 
 Z=  49 A= 117  D1M-QRPA-Inter
 E[MeV]  fQRPA[mb/MeV]
    0.100   1.116E-04
    0.200   4.444E-04
    0.300   9.933E-04
    0.400   1.751E-03
    0.500   2.708E-03
    0.600   3.856E-03
    0.700   5.186E-03
    0.800   6.689E-03
    0.900   8.357E-03
    1.000   1.018E-02
    1.100   1.216E-02
    1.200   1.428E-02
    1.300   1.655E-02
    1.400   1.895E-02
    1.500   2.148E-02
    1.600   2.415E-02
    1.700   2.695E-02
    1.800   2.989E-02
    1.900   3.297E-02
    2.000   3.619E-02
    2.100   3.957E-02
    2.200   4.309E-02
    2.300   4.678E-02
    2.400   5.065E-02
    2.500   5.469E-02
    2.600   5.893E-02
    2.700   6.336E-02
    2.800   6.800E-02
    2.900   7.287E-02
    3.000   7.797E-02
    3.100   8.331E-02
    3.200   8.891E-02
    3.300   9.477E-02
    3.400   1.009E-01
    3.500   1.074E-01
    3.600   1.141E-01
    3.700   1.212E-01
    3.800   1.286E-01
    3.900   1.363E-01
    4.000   1.444E-01
    4.100   1.529E-01
    4.200   1.618E-01
    4.300   1.712E-01
    4.400   1.809E-01
    4.500   1.911E-01
    4.600   2.019E-01
    4.700   2.131E-01
    4.800   2.248E-01
    4.900   2.372E-01
    5.000   2.501E-01
    5.100   2.636E-01
    5.200   2.778E-01
    5.300   2.927E-01
    5.400   3.083E-01
    5.500   3.247E-01
    5.600   3.419E-01
    5.700   3.600E-01
    5.800   3.789E-01
    5.900   3.988E-01
    6.000   4.197E-01
    6.100   4.417E-01
    6.200   4.647E-01
    6.300   4.888E-01
    6.400   5.142E-01
    6.500   5.407E-01
    6.600   5.685E-01
    6.700   5.975E-01
    6.800   6.279E-01
    6.900   6.595E-01
    7.000   6.924E-01
    7.100   7.265E-01
    7.200   7.619E-01
    7.300   7.986E-01
    7.400   8.364E-01
    7.500   8.753E-01
    7.600   9.154E-01
    7.700   9.566E-01
    7.800   9.988E-01
    7.900   1.042E+00
    8.000   1.087E+00
    8.100   1.132E+00
    8.200   1.179E+00
    8.300   1.228E+00
    8.400   1.278E+00
    8.500   1.329E+00
    8.600   1.383E+00
    8.700   1.438E+00
    8.800   1.496E+00
    8.900   1.557E+00
    9.000   1.620E+00
    9.100   1.686E+00
    9.200   1.755E+00
    9.300   1.828E+00
    9.400   1.904E+00
    9.500   1.984E+00
    9.600   2.067E+00
    9.700   2.155E+00
    9.800   2.247E+00
    9.900   2.343E+00
   10.000   2.443E+00
   10.100   2.548E+00
   10.200   2.657E+00
   10.300   2.771E+00
   10.400   2.890E+00
   10.500   3.013E+00
   10.600   3.142E+00
   10.700   3.275E+00
   10.800   3.415E+00
   10.900   3.560E+00
   11.000   3.713E+00
   11.100   3.872E+00
   11.200   4.038E+00
   11.300   4.213E+00
   11.400   4.397E+00
   11.500   4.591E+00
   11.600   4.795E+00
   11.700   5.011E+00
   11.800   5.239E+00
   11.900   5.480E+00
   12.000   5.736E+00
   12.100   6.006E+00
   12.200   6.292E+00
   12.300   6.595E+00
   12.400   6.915E+00
   12.500   7.252E+00
   12.600   7.607E+00
   12.700   7.981E+00
   12.800   8.371E+00
   12.900   8.779E+00
   13.000   9.202E+00
   13.100   9.640E+00
   13.200   1.009E+01
   13.300   1.055E+01
   13.400   1.101E+01
   13.500   1.148E+01
   13.600   1.195E+01
   13.700   1.241E+01
   13.800   1.286E+01
   13.900   1.330E+01
   14.000   1.372E+01
   14.100   1.412E+01
   14.200   1.449E+01
   14.300   1.483E+01
   14.400   1.514E+01
   14.500   1.542E+01
   14.600   1.566E+01
   14.700   1.587E+01
   14.800   1.605E+01
   14.900   1.619E+01
   15.000   1.630E+01
   15.100   1.638E+01
   15.200   1.643E+01
   15.300   1.645E+01
   15.400   1.644E+01
   15.500   1.640E+01
   15.600   1.634E+01
   15.700   1.624E+01
   15.800   1.612E+01
   15.900   1.597E+01
   16.000   1.579E+01
   16.100   1.559E+01
   16.200   1.536E+01
   16.300   1.510E+01
   16.400   1.482E+01
   16.500   1.452E+01
   16.600   1.420E+01
   16.700   1.387E+01
   16.800   1.352E+01
   16.900   1.316E+01
   17.000   1.279E+01
   17.100   1.241E+01
   17.200   1.204E+01
   17.300   1.166E+01
   17.400   1.129E+01
   17.500   1.092E+01
   17.600   1.056E+01
   17.700   1.021E+01
   17.800   9.863E+00
   17.900   9.531E+00
   18.000   9.212E+00
   18.100   8.905E+00
   18.200   8.611E+00
   18.300   8.329E+00
   18.400   8.061E+00
   18.500   7.804E+00
   18.600   7.560E+00
   18.700   7.328E+00
   18.800   7.106E+00
   18.900   6.896E+00
   19.000   6.696E+00
   19.100   6.505E+00
   19.200   6.323E+00
   19.300   6.149E+00
   19.400   5.983E+00
   19.500   5.825E+00
   19.600   5.672E+00
   19.700   5.526E+00
   19.800   5.384E+00
   19.900   5.247E+00
   20.000   5.114E+00
   20.100   4.984E+00
   20.200   4.858E+00
   20.300   4.734E+00
   20.400   4.613E+00
   20.500   4.494E+00
   20.600   4.377E+00
   20.700   4.262E+00
   20.800   4.150E+00
   20.900   4.040E+00
   21.000   3.932E+00
   21.100   3.826E+00
   21.200   3.723E+00
   21.300   3.622E+00
   21.400   3.523E+00
   21.500   3.427E+00
   21.600   3.333E+00
   21.700   3.242E+00
   21.800   3.154E+00
   21.900   3.068E+00
   22.000   2.984E+00
   22.100   2.903E+00
   22.200   2.824E+00
   22.300   2.748E+00
   22.400   2.674E+00
   22.500   2.603E+00
   22.600   2.534E+00
   22.700   2.468E+00
   22.800   2.404E+00
   22.900   2.342E+00
   23.000   2.283E+00
   23.100   2.226E+00
   23.200   2.170E+00
   23.300   2.117E+00
   23.400   2.066E+00
   23.500   2.017E+00
   23.600   1.969E+00
   23.700   1.923E+00
   23.800   1.879E+00
   23.900   1.836E+00
   24.000   1.795E+00
   24.100   1.755E+00
   24.200   1.716E+00
   24.300   1.679E+00
   24.400   1.643E+00
   24.500   1.608E+00
   24.600   1.575E+00
   24.700   1.542E+00
   24.800   1.511E+00
   24.900   1.481E+00
   25.000   1.451E+00
   25.100   1.423E+00
   25.200   1.395E+00
   25.300   1.368E+00
   25.400   1.342E+00
   25.500   1.317E+00
   25.600   1.293E+00
   25.700   1.269E+00
   25.800   1.247E+00
   25.900   1.224E+00
   26.000   1.203E+00
   26.100   1.182E+00
   26.200   1.162E+00
   26.300   1.142E+00
   26.400   1.123E+00
   26.500   1.104E+00
   26.600   1.086E+00
   26.700   1.069E+00
   26.800   1.051E+00
   26.900   1.035E+00
   27.000   1.019E+00
   27.100   1.003E+00
   27.200   9.876E-01
   27.300   9.727E-01
   27.400   9.581E-01
   27.500   9.439E-01
   27.600   9.301E-01
   27.700   9.166E-01
   27.800   9.035E-01
   27.900   8.907E-01
   28.000   8.781E-01
   28.100   8.659E-01
   28.200   8.540E-01
   28.300   8.423E-01
   28.400   8.309E-01
   28.500   8.198E-01
   28.600   8.089E-01
   28.700   7.983E-01
   28.800   7.878E-01
   28.900   7.777E-01
   29.000   7.677E-01
   29.100   7.580E-01
   29.200   7.484E-01
   29.300   7.391E-01
   29.400   7.299E-01
   29.500   7.210E-01
   29.600   7.122E-01
   29.700   7.036E-01
   29.800   6.952E-01
   29.900   6.869E-01
   30.000   6.788E-01
 
 Z=  49 A= 118  D1M-QRPA-Inter
 E[MeV]  fQRPA[mb/MeV]
    0.100   1.157E-04
    0.200   4.621E-04
    0.300   1.037E-03
    0.400   1.837E-03
    0.500   2.858E-03
    0.600   4.098E-03
    0.700   5.553E-03
    0.800   7.220E-03
    0.900   9.096E-03
    1.000   1.118E-02
    1.100   1.347E-02
    1.200   1.596E-02
    1.300   1.866E-02
    1.400   2.156E-02
    1.500   2.466E-02
    1.600   2.797E-02
    1.700   3.149E-02
    1.800   3.521E-02
    1.900   3.914E-02
    2.000   4.329E-02
    2.100   4.765E-02
    2.200   5.222E-02
    2.300   5.702E-02
    2.400   6.205E-02
    2.500   6.730E-02
    2.600   7.279E-02
    2.700   7.853E-02
    2.800   8.452E-02
    2.900   9.077E-02
    3.000   9.730E-02
    3.100   1.041E-01
    3.200   1.112E-01
    3.300   1.187E-01
    3.400   1.265E-01
    3.500   1.346E-01
    3.600   1.432E-01
    3.700   1.522E-01
    3.800   1.616E-01
    3.900   1.714E-01
    4.000   1.818E-01
    4.100   1.927E-01
    4.200   2.041E-01
    4.300   2.160E-01
    4.400   2.285E-01
    4.500   2.416E-01
    4.600   2.553E-01
    4.700   2.696E-01
    4.800   2.846E-01
    4.900   3.001E-01
    5.000   3.163E-01
    5.100   3.331E-01
    5.200   3.506E-01
    5.300   3.686E-01
    5.400   3.873E-01
    5.500   4.067E-01
    5.600   4.267E-01
    5.700   4.473E-01
    5.800   4.687E-01
    5.900   4.908E-01
    6.000   5.138E-01
    6.100   5.376E-01
    6.200   5.623E-01
    6.300   5.881E-01
    6.400   6.149E-01
    6.500   6.429E-01
    6.600   6.720E-01
    6.700   7.025E-01
    6.800   7.342E-01
    6.900   7.674E-01
    7.000   8.019E-01
    7.100   8.379E-01
    7.200   8.753E-01
    7.300   9.142E-01
    7.400   9.546E-01
    7.500   9.965E-01
    7.600   1.040E+00
    7.700   1.085E+00
    7.800   1.131E+00
    7.900   1.179E+00
    8.000   1.229E+00
    8.100   1.281E+00
    8.200   1.334E+00
    8.300   1.389E+00
    8.400   1.447E+00
    8.500   1.506E+00
    8.600   1.568E+00
    8.700   1.633E+00
    8.800   1.700E+00
    8.900   1.770E+00
    9.000   1.843E+00
    9.100   1.920E+00
    9.200   2.000E+00
    9.300   2.083E+00
    9.400   2.170E+00
    9.500   2.261E+00
    9.600   2.356E+00
    9.700   2.455E+00
    9.800   2.558E+00
    9.900   2.666E+00
   10.000   2.778E+00
   10.100   2.894E+00
   10.200   3.016E+00
   10.300   3.142E+00
   10.400   3.274E+00
   10.500   3.411E+00
   10.600   3.554E+00
   10.700   3.703E+00
   10.800   3.859E+00
   10.900   4.022E+00
   11.000   4.193E+00
   11.100   4.373E+00
   11.200   4.562E+00
   11.300   4.761E+00
   11.400   4.972E+00
   11.500   5.194E+00
   11.600   5.430E+00
   11.700   5.681E+00
   11.800   5.946E+00
   11.900   6.228E+00
   12.000   6.528E+00
   12.100   6.846E+00
   12.200   7.184E+00
   12.300   7.542E+00
   12.400   7.920E+00
   12.500   8.320E+00
   12.600   8.740E+00
   12.700   9.181E+00
   12.800   9.641E+00
   12.900   1.012E+01
   13.000   1.062E+01
   13.100   1.112E+01
   13.200   1.164E+01
   13.300   1.217E+01
   13.400   1.270E+01
   13.500   1.322E+01
   13.600   1.374E+01
   13.700   1.424E+01
   13.800   1.472E+01
   13.900   1.518E+01
   14.000   1.561E+01
   14.100   1.601E+01
   14.200   1.637E+01
   14.300   1.668E+01
   14.400   1.696E+01
   14.500   1.720E+01
   14.600   1.739E+01
   14.700   1.754E+01
   14.800   1.765E+01
   14.900   1.772E+01
   15.000   1.774E+01
   15.100   1.773E+01
   15.200   1.768E+01
   15.300   1.758E+01
   15.400   1.746E+01
   15.500   1.729E+01
   15.600   1.709E+01
   15.700   1.686E+01
   15.800   1.659E+01
   15.900   1.630E+01
   16.000   1.598E+01
   16.100   1.563E+01
   16.200   1.527E+01
   16.300   1.489E+01
   16.400   1.449E+01
   16.500   1.408E+01
   16.600   1.367E+01
   16.700   1.325E+01
   16.800   1.283E+01
   16.900   1.242E+01
   17.000   1.201E+01
   17.100   1.160E+01
   17.200   1.121E+01
   17.300   1.082E+01
   17.400   1.045E+01
   17.500   1.009E+01
   17.600   9.744E+00
   17.700   9.412E+00
   17.800   9.093E+00
   17.900   8.789E+00
   18.000   8.498E+00
   18.100   8.221E+00
   18.200   7.957E+00
   18.300   7.707E+00
   18.400   7.468E+00
   18.500   7.241E+00
   18.600   7.026E+00
   18.700   6.821E+00
   18.800   6.626E+00
   18.900   6.441E+00
   19.000   6.264E+00
   19.100   6.096E+00
   19.200   5.935E+00
   19.300   5.781E+00
   19.400   5.633E+00
   19.500   5.491E+00
   19.600   5.353E+00
   19.700   5.220E+00
   19.800   5.091E+00
   19.900   4.965E+00
   20.000   4.841E+00
   20.100   4.721E+00
   20.200   4.602E+00
   20.300   4.486E+00
   20.400   4.372E+00
   20.500   4.260E+00
   20.600   4.150E+00
   20.700   4.042E+00
   20.800   3.936E+00
   20.900   3.833E+00
   21.000   3.732E+00
   21.100   3.634E+00
   21.200   3.538E+00
   21.300   3.445E+00
   21.400   3.354E+00
   21.500   3.266E+00
   21.600   3.181E+00
   21.700   3.098E+00
   21.800   3.018E+00
   21.900   2.940E+00
   22.000   2.865E+00
   22.100   2.792E+00
   22.200   2.721E+00
   22.300   2.652E+00
   22.400   2.586E+00
   22.500   2.522E+00
   22.600   2.459E+00
   22.700   2.399E+00
   22.800   2.341E+00
   22.900   2.284E+00
   23.000   2.229E+00
   23.100   2.176E+00
   23.200   2.125E+00
   23.300   2.075E+00
   23.400   2.027E+00
   23.500   1.980E+00
   23.600   1.935E+00
   23.700   1.892E+00
   23.800   1.850E+00
   23.900   1.809E+00
   24.000   1.770E+00
   24.100   1.732E+00
   24.200   1.695E+00
   24.300   1.660E+00
   24.400   1.625E+00
   24.500   1.592E+00
   24.600   1.560E+00
   24.700   1.529E+00
   24.800   1.499E+00
   24.900   1.469E+00
   25.000   1.441E+00
   25.100   1.414E+00
   25.200   1.387E+00
   25.300   1.361E+00
   25.400   1.336E+00
   25.500   1.312E+00
   25.600   1.288E+00
   25.700   1.265E+00
   25.800   1.243E+00
   25.900   1.222E+00
   26.000   1.201E+00
   26.100   1.181E+00
   26.200   1.161E+00
   26.300   1.142E+00
   26.400   1.123E+00
   26.500   1.105E+00
   26.600   1.087E+00
   26.700   1.070E+00
   26.800   1.054E+00
   26.900   1.037E+00
   27.000   1.022E+00
   27.100   1.006E+00
   27.200   9.914E-01
   27.300   9.768E-01
   27.400   9.626E-01
   27.500   9.487E-01
   27.600   9.352E-01
   27.700   9.220E-01
   27.800   9.091E-01
   27.900   8.965E-01
   28.000   8.842E-01
   28.100   8.722E-01
   28.200   8.605E-01
   28.300   8.491E-01
   28.400   8.379E-01
   28.500   8.269E-01
   28.600   8.162E-01
   28.700   8.057E-01
   28.800   7.955E-01
   28.900   7.854E-01
   29.000   7.756E-01
   29.100   7.660E-01
   29.200   7.566E-01
   29.300   7.474E-01
   29.400   7.383E-01
   29.500   7.295E-01
   29.600   7.208E-01
   29.700   7.123E-01
   29.800   7.040E-01
   29.900   6.958E-01
   30.000   6.878E-01
 
 Z=  49 A= 119  D1M-QRPA-Inter
 E[MeV]  fQRPA[mb/MeV]
    0.100   7.771E-05
    0.200   3.110E-04
    0.300   7.001E-04
    0.400   1.246E-03
    0.500   1.948E-03
    0.600   2.809E-03
    0.700   3.829E-03
    0.800   5.010E-03
    0.900   6.354E-03
    1.000   7.861E-03
    1.100   9.536E-03
    1.200   1.138E-02
    1.300   1.339E-02
    1.400   1.558E-02
    1.500   1.795E-02
    1.600   2.050E-02
    1.700   2.323E-02
    1.800   2.615E-02
    1.900   2.927E-02
    2.000   3.259E-02
    2.100   3.610E-02
    2.200   3.983E-02
    2.300   4.377E-02
    2.400   4.794E-02
    2.500   5.233E-02
    2.600   5.696E-02
    2.700   6.183E-02
    2.800   6.695E-02
    2.900   7.234E-02
    3.000   7.799E-02
    3.100   8.393E-02
    3.200   9.015E-02
    3.300   9.668E-02
    3.400   1.035E-01
    3.500   1.107E-01
    3.600   1.182E-01
    3.700   1.261E-01
    3.800   1.344E-01
    3.900   1.430E-01
    4.000   1.520E-01
    4.100   1.615E-01
    4.200   1.715E-01
    4.300   1.819E-01
    4.400   1.928E-01
    4.500   2.042E-01
    4.600   2.162E-01
    4.700   2.288E-01
    4.800   2.420E-01
    4.900   2.559E-01
    5.000   2.704E-01
    5.100   2.857E-01
    5.200   3.017E-01
    5.300   3.185E-01
    5.400   3.362E-01
    5.500   3.548E-01
    5.600   3.744E-01
    5.700   3.949E-01
    5.800   4.165E-01
    5.900   4.392E-01
    6.000   4.631E-01
    6.100   4.882E-01
    6.200   5.145E-01
    6.300   5.421E-01
    6.400   5.711E-01
    6.500   6.014E-01
    6.600   6.331E-01
    6.700   6.661E-01
    6.800   7.006E-01
    6.900   7.363E-01
    7.000   7.734E-01
    7.100   8.117E-01
    7.200   8.512E-01
    7.300   8.918E-01
    7.400   9.334E-01
    7.500   9.759E-01
    7.600   1.019E+00
    7.700   1.063E+00
    7.800   1.108E+00
    7.900   1.154E+00
    8.000   1.201E+00
    8.100   1.248E+00
    8.200   1.296E+00
    8.300   1.345E+00
    8.400   1.396E+00
    8.500   1.447E+00
    8.600   1.501E+00
    8.700   1.556E+00
    8.800   1.613E+00
    8.900   1.672E+00
    9.000   1.734E+00
    9.100   1.799E+00
    9.200   1.866E+00
    9.300   1.937E+00
    9.400   2.011E+00
    9.500   2.089E+00
    9.600   2.171E+00
    9.700   2.257E+00
    9.800   2.348E+00
    9.900   2.442E+00
   10.000   2.541E+00
   10.100   2.645E+00
   10.200   2.754E+00
   10.300   2.867E+00
   10.400   2.986E+00
   10.500   3.109E+00
   10.600   3.238E+00
   10.700   3.373E+00
   10.800   3.514E+00
   10.900   3.660E+00
   11.000   3.814E+00
   11.100   3.974E+00
   11.200   4.143E+00
   11.300   4.320E+00
   11.400   4.506E+00
   11.500   4.703E+00
   11.600   4.910E+00
   11.700   5.131E+00
   11.800   5.364E+00
   11.900   5.613E+00
   12.000   5.877E+00
   12.100   6.159E+00
   12.200   6.458E+00
   12.300   6.778E+00
   12.400   7.117E+00
   12.500   7.478E+00
   12.600   7.861E+00
   12.700   8.267E+00
   12.800   8.695E+00
   12.900   9.146E+00
   13.000   9.618E+00
   13.100   1.011E+01
   13.200   1.062E+01
   13.300   1.115E+01
   13.400   1.169E+01
   13.500   1.225E+01
   13.600   1.281E+01
   13.700   1.337E+01
   13.800   1.392E+01
   13.900   1.447E+01
   14.000   1.501E+01
   14.100   1.553E+01
   14.200   1.602E+01
   14.300   1.648E+01
   14.400   1.691E+01
   14.500   1.731E+01
   14.600   1.767E+01
   14.700   1.798E+01
   14.800   1.825E+01
   14.900   1.846E+01
   15.000   1.863E+01
   15.100   1.875E+01
   15.200   1.881E+01
   15.300   1.882E+01
   15.400   1.877E+01
   15.500   1.866E+01
   15.600   1.850E+01
   15.700   1.828E+01
   15.800   1.801E+01
   15.900   1.769E+01
   16.000   1.733E+01
   16.100   1.693E+01
   16.200   1.649E+01
   16.300   1.603E+01
   16.400   1.554E+01
   16.500   1.505E+01
   16.600   1.454E+01
   16.700   1.403E+01
   16.800   1.352E+01
   16.900   1.302E+01
   17.000   1.253E+01
   17.100   1.206E+01
   17.200   1.160E+01
   17.300   1.117E+01
   17.400   1.075E+01
   17.500   1.035E+01
   17.600   9.973E+00
   17.700   9.617E+00
   17.800   9.282E+00
   17.900   8.966E+00
   18.000   8.669E+00
   18.100   8.390E+00
   18.200   8.129E+00
   18.300   7.884E+00
   18.400   7.654E+00
   18.500   7.438E+00
   18.600   7.235E+00
   18.700   7.045E+00
   18.800   6.865E+00
   18.900   6.696E+00
   19.000   6.535E+00
   19.100   6.382E+00
   19.200   6.236E+00
   19.300   6.096E+00
   19.400   5.961E+00
   19.500   5.829E+00
   19.600   5.700E+00
   19.700   5.574E+00
   19.800   5.449E+00
   19.900   5.325E+00
   20.000   5.201E+00
   20.100   5.078E+00
   20.200   4.954E+00
   20.300   4.831E+00
   20.400   4.708E+00
   20.500   4.586E+00
   20.600   4.465E+00
   20.700   4.345E+00
   20.800   4.226E+00
   20.900   4.109E+00
   21.000   3.995E+00
   21.100   3.883E+00
   21.200   3.774E+00
   21.300   3.668E+00
   21.400   3.565E+00
   21.500   3.465E+00
   21.600   3.369E+00
   21.700   3.275E+00
   21.800   3.185E+00
   21.900   3.097E+00
   22.000   3.013E+00
   22.100   2.931E+00
   22.200   2.852E+00
   22.300   2.776E+00
   22.400   2.702E+00
   22.500   2.631E+00
   22.600   2.563E+00
   22.700   2.497E+00
   22.800   2.433E+00
   22.900   2.371E+00
   23.000   2.312E+00
   23.100   2.254E+00
   23.200   2.199E+00
   23.300   2.145E+00
   23.400   2.093E+00
   23.500   2.043E+00
   23.600   1.995E+00
   23.700   1.949E+00
   23.800   1.904E+00
   23.900   1.861E+00
   24.000   1.819E+00
   24.100   1.779E+00
   24.200   1.740E+00
   24.300   1.702E+00
   24.400   1.666E+00
   24.500   1.631E+00
   24.600   1.598E+00
   24.700   1.565E+00
   24.800   1.534E+00
   24.900   1.503E+00
   25.000   1.474E+00
   25.100   1.445E+00
   25.200   1.418E+00
   25.300   1.391E+00
   25.400   1.365E+00
   25.500   1.340E+00
   25.600   1.316E+00
   25.700   1.293E+00
   25.800   1.270E+00
   25.900   1.248E+00
   26.000   1.227E+00
   26.100   1.206E+00
   26.200   1.186E+00
   26.300   1.166E+00
   26.400   1.147E+00
   26.500   1.129E+00
   26.600   1.111E+00
   26.700   1.093E+00
   26.800   1.076E+00
   26.900   1.060E+00
   27.000   1.044E+00
   27.100   1.028E+00
   27.200   1.013E+00
   27.300   9.978E-01
   27.400   9.832E-01
   27.500   9.690E-01
   27.600   9.551E-01
   27.700   9.416E-01
   27.800   9.283E-01
   27.900   9.154E-01
   28.000   9.028E-01
   28.100   8.904E-01
   28.200   8.784E-01
   28.300   8.665E-01
   28.400   8.550E-01
   28.500   8.437E-01
   28.600   8.327E-01
   28.700   8.219E-01
   28.800   8.113E-01
   28.900   8.009E-01
   29.000   7.908E-01
   29.100   7.809E-01
   29.200   7.712E-01
   29.300   7.617E-01
   29.400   7.523E-01
   29.500   7.432E-01
   29.600   7.343E-01
   29.700   7.255E-01
   29.800   7.169E-01
   29.900   7.085E-01
   30.000   7.002E-01
 
 Z=  49 A= 120  D1M-QRPA-Inter
 E[MeV]  fQRPA[mb/MeV]
    0.100   7.025E-05
    0.200   2.811E-04
    0.300   6.328E-04
    0.400   1.126E-03
    0.500   1.761E-03
    0.600   2.539E-03
    0.700   3.461E-03
    0.800   4.527E-03
    0.900   5.741E-03
    1.000   7.102E-03
    1.100   8.614E-03
    1.200   1.028E-02
    1.300   1.210E-02
    1.400   1.407E-02
    1.500   1.620E-02
    1.600   1.850E-02
    1.700   2.096E-02
    1.800   2.359E-02
    1.900   2.640E-02
    2.000   2.938E-02
    2.100   3.254E-02
    2.200   3.589E-02
    2.300   3.943E-02
    2.400   4.317E-02
    2.500   4.710E-02
    2.600   5.125E-02
    2.700   5.561E-02
    2.800   6.019E-02
    2.900   6.500E-02
    3.000   7.005E-02
    3.100   7.534E-02
    3.200   8.088E-02
    3.300   8.669E-02
    3.400   9.277E-02
    3.500   9.914E-02
    3.600   1.058E-01
    3.700   1.128E-01
    3.800   1.201E-01
    3.900   1.277E-01
    4.000   1.357E-01
    4.100   1.440E-01
    4.200   1.527E-01
    4.300   1.618E-01
    4.400   1.714E-01
    4.500   1.814E-01
    4.600   1.918E-01
    4.700   2.027E-01
    4.800   2.142E-01
    4.900   2.261E-01
    5.000   2.387E-01
    5.100   2.518E-01
    5.200   2.655E-01
    5.300   2.799E-01
    5.400   2.950E-01
    5.500   3.109E-01
    5.600   3.275E-01
    5.700   3.448E-01
    5.800   3.631E-01
    5.900   3.822E-01
    6.000   4.023E-01
    6.100   4.233E-01
    6.200   4.454E-01
    6.300   4.685E-01
    6.400   4.927E-01
    6.500   5.180E-01
    6.600   5.445E-01
    6.700   5.722E-01
    6.800   6.011E-01
    6.900   6.312E-01
    7.000   6.625E-01
    7.100   6.950E-01
    7.200   7.288E-01
    7.300   7.637E-01
    7.400   7.998E-01
    7.500   8.370E-01
    7.600   8.753E-01
    7.700   9.147E-01
    7.800   9.552E-01
    7.900   9.967E-01
    8.000   1.039E+00
    8.100   1.083E+00
    8.200   1.128E+00
    8.300   1.174E+00
    8.400   1.221E+00
    8.500   1.270E+00
    8.600   1.320E+00
    8.700   1.371E+00
    8.800   1.425E+00
    8.900   1.480E+00
    9.000   1.538E+00
    9.100   1.597E+00
    9.200   1.660E+00
    9.300   1.725E+00
    9.400   1.792E+00
    9.500   1.864E+00
    9.600   1.938E+00
    9.700   2.016E+00
    9.800   2.098E+00
    9.900   2.184E+00
   10.000   2.275E+00
   10.100   2.370E+00
   10.200   2.470E+00
   10.300   2.575E+00
   10.400   2.685E+00
   10.500   2.801E+00
   10.600   2.922E+00
   10.700   3.050E+00
   10.800   3.184E+00
   10.900   3.324E+00
   11.000   3.472E+00
   11.100   3.628E+00
   11.200   3.791E+00
   11.300   3.964E+00
   11.400   4.145E+00
   11.500   4.337E+00
   11.600   4.539E+00
   11.700   4.753E+00
   11.800   4.979E+00
   11.900   5.218E+00
   12.000   5.471E+00
   12.100   5.738E+00
   12.200   6.022E+00
   12.300   6.321E+00
   12.400   6.637E+00
   12.500   6.971E+00
   12.600   7.322E+00
   12.700   7.691E+00
   12.800   8.077E+00
   12.900   8.480E+00
   13.000   8.899E+00
   13.100   9.332E+00
   13.200   9.778E+00
   13.300   1.023E+01
   13.400   1.070E+01
   13.500   1.116E+01
   13.600   1.163E+01
   13.700   1.209E+01
   13.800   1.254E+01
   13.900   1.298E+01
   14.000   1.340E+01
   14.100   1.380E+01
   14.200   1.417E+01
   14.300   1.451E+01
   14.400   1.482E+01
   14.500   1.508E+01
   14.600   1.531E+01
   14.700   1.549E+01
   14.800   1.563E+01
   14.900   1.572E+01
   15.000   1.577E+01
   15.100   1.577E+01
   15.200   1.573E+01
   15.300   1.564E+01
   15.400   1.550E+01
   15.500   1.533E+01
   15.600   1.512E+01
   15.700   1.487E+01
   15.800   1.458E+01
   15.900   1.427E+01
   16.000   1.394E+01
   16.100   1.358E+01
   16.200   1.320E+01
   16.300   1.282E+01
   16.400   1.242E+01
   16.500   1.202E+01
   16.600   1.163E+01
   16.700   1.123E+01
   16.800   1.084E+01
   16.900   1.046E+01
   17.000   1.009E+01
   17.100   9.734E+00
   17.200   9.390E+00
   17.300   9.060E+00
   17.400   8.744E+00
   17.500   8.443E+00
   17.600   8.157E+00
   17.700   7.885E+00
   17.800   7.627E+00
   17.900   7.382E+00
   18.000   7.150E+00
   18.100   6.929E+00
   18.200   6.720E+00
   18.300   6.522E+00
   18.400   6.333E+00
   18.500   6.153E+00
   18.600   5.981E+00
   18.700   5.817E+00
   18.800   5.660E+00
   18.900   5.509E+00
   19.000   5.364E+00
   19.100   5.225E+00
   19.200   5.090E+00
   19.300   4.960E+00
   19.400   4.833E+00
   19.500   4.710E+00
   19.600   4.590E+00
   19.700   4.473E+00
   19.800   4.358E+00
   19.900   4.246E+00
   20.000   4.136E+00
   20.100   4.027E+00
   20.200   3.921E+00
   20.300   3.817E+00
   20.400   3.714E+00
   20.500   3.614E+00
   20.600   3.516E+00
   20.700   3.420E+00
   20.800   3.327E+00
   20.900   3.236E+00
   21.000   3.147E+00
   21.100   3.061E+00
   21.200   2.978E+00
   21.300   2.898E+00
   21.400   2.820E+00
   21.500   2.744E+00
   21.600   2.672E+00
   21.700   2.601E+00
   21.800   2.533E+00
   21.900   2.468E+00
   22.000   2.405E+00
   22.100   2.343E+00
   22.200   2.284E+00
   22.300   2.227E+00
   22.400   2.173E+00
   22.500   2.119E+00
   22.600   2.068E+00
   22.700   2.019E+00
   22.800   1.971E+00
   22.900   1.925E+00
   23.000   1.880E+00
   23.100   1.837E+00
   23.200   1.795E+00
   23.300   1.755E+00
   23.400   1.716E+00
   23.500   1.679E+00
   23.600   1.642E+00
   23.700   1.607E+00
   23.800   1.574E+00
   23.900   1.541E+00
   24.000   1.509E+00
   24.100   1.479E+00
   24.200   1.449E+00
   24.300   1.420E+00
   24.400   1.393E+00
   24.500   1.366E+00
   24.600   1.340E+00
   24.700   1.315E+00
   24.800   1.291E+00
   24.900   1.267E+00
   25.000   1.244E+00
   25.100   1.222E+00
   25.200   1.201E+00
   25.300   1.180E+00
   25.400   1.160E+00
   25.500   1.141E+00
   25.600   1.122E+00
   25.700   1.103E+00
   25.800   1.085E+00
   25.900   1.068E+00
   26.000   1.051E+00
   26.100   1.035E+00
   26.200   1.019E+00
   26.300   1.003E+00
   26.400   9.881E-01
   26.500   9.733E-01
   26.600   9.590E-01
   26.700   9.450E-01
   26.800   9.314E-01
   26.900   9.181E-01
   27.000   9.051E-01
   27.100   8.924E-01
   27.200   8.800E-01
   27.300   8.679E-01
   27.400   8.560E-01
   27.500   8.444E-01
   27.600   8.331E-01
   27.700   8.220E-01
   27.800   8.111E-01
   27.900   8.005E-01
   28.000   7.901E-01
   28.100   7.799E-01
   28.200   7.699E-01
   28.300   7.601E-01
   28.400   7.505E-01
   28.500   7.410E-01
   28.600   7.318E-01
   28.700   7.227E-01
   28.800   7.138E-01
   28.900   7.050E-01
   29.000   6.964E-01
   29.100   6.880E-01
   29.200   6.797E-01
   29.300   6.715E-01
   29.400   6.635E-01
   29.500   6.556E-01
   29.600   6.478E-01
   29.700   6.402E-01
   29.800   6.327E-01
   29.900   6.253E-01
   30.000   6.181E-01
 
 Z=  49 A= 121  D1M-QRPA-Inter
 E[MeV]  fQRPA[mb/MeV]
    0.100   8.795E-05
    0.200   3.519E-04
    0.300   7.922E-04
    0.400   1.409E-03
    0.500   2.204E-03
    0.600   3.178E-03
    0.700   4.331E-03
    0.800   5.666E-03
    0.900   7.184E-03
    1.000   8.886E-03
    1.100   1.078E-02
    1.200   1.285E-02
    1.300   1.513E-02
    1.400   1.759E-02
    1.500   2.026E-02
    1.600   2.312E-02
    1.700   2.619E-02
    1.800   2.948E-02
    1.900   3.297E-02
    2.000   3.668E-02
    2.100   4.062E-02
    2.200   4.479E-02
    2.300   4.919E-02
    2.400   5.383E-02
    2.500   5.872E-02
    2.600   6.386E-02
    2.700   6.926E-02
    2.800   7.494E-02
    2.900   8.089E-02
    3.000   8.712E-02
    3.100   9.366E-02
    3.200   1.005E-01
    3.300   1.076E-01
    3.400   1.151E-01
    3.500   1.230E-01
    3.600   1.311E-01
    3.700   1.397E-01
    3.800   1.486E-01
    3.900   1.579E-01
    4.000   1.676E-01
    4.100   1.778E-01
    4.200   1.884E-01
    4.300   1.994E-01
    4.400   2.110E-01
    4.500   2.230E-01
    4.600   2.356E-01
    4.700   2.487E-01
    4.800   2.625E-01
    4.900   2.768E-01
    5.000   2.917E-01
    5.100   3.074E-01
    5.200   3.237E-01
    5.300   3.407E-01
    5.400   3.586E-01
    5.500   3.772E-01
    5.600   3.967E-01
    5.700   4.170E-01
    5.800   4.383E-01
    5.900   4.606E-01
    6.000   4.840E-01
    6.100   5.084E-01
    6.200   5.339E-01
    6.300   5.607E-01
    6.400   5.887E-01
    6.500   6.180E-01
    6.600   6.486E-01
    6.700   6.807E-01
    6.800   7.142E-01
    6.900   7.493E-01
    7.000   7.859E-01
    7.100   8.242E-01
    7.200   8.641E-01
    7.300   9.057E-01
    7.400   9.491E-01
    7.500   9.942E-01
    7.600   1.041E+00
    7.700   1.090E+00
    7.800   1.140E+00
    7.900   1.192E+00
    8.000   1.246E+00
    8.100   1.302E+00
    8.200   1.359E+00
    8.300   1.418E+00
    8.400   1.480E+00
    8.500   1.542E+00
    8.600   1.607E+00
    8.700   1.674E+00
    8.800   1.743E+00
    8.900   1.814E+00
    9.000   1.888E+00
    9.100   1.964E+00
    9.200   2.044E+00
    9.300   2.126E+00
    9.400   2.212E+00
    9.500   2.302E+00
    9.600   2.396E+00
    9.700   2.494E+00
    9.800   2.597E+00
    9.900   2.706E+00
   10.000   2.820E+00
   10.100   2.941E+00
   10.200   3.068E+00
   10.300   3.202E+00
   10.400   3.344E+00
   10.500   3.493E+00
   10.600   3.651E+00
   10.700   3.818E+00
   10.800   3.995E+00
   10.900   4.181E+00
   11.000   4.378E+00
   11.100   4.586E+00
   11.200   4.805E+00
   11.300   5.037E+00
   11.400   5.281E+00
   11.500   5.539E+00
   11.600   5.810E+00
   11.700   6.097E+00
   11.800   6.399E+00
   11.900   6.717E+00
   12.000   7.052E+00
   12.100   7.405E+00
   12.200   7.775E+00
   12.300   8.164E+00
   12.400   8.572E+00
   12.500   8.999E+00
   12.600   9.445E+00
   12.700   9.909E+00
   12.800   1.039E+01
   12.900   1.089E+01
   13.000   1.140E+01
   13.100   1.193E+01
   13.200   1.246E+01
   13.300   1.300E+01
   13.400   1.355E+01
   13.500   1.409E+01
   13.600   1.462E+01
   13.700   1.515E+01
   13.800   1.565E+01
   13.900   1.613E+01
   14.000   1.658E+01
   14.100   1.699E+01
   14.200   1.736E+01
   14.300   1.769E+01
   14.400   1.797E+01
   14.500   1.820E+01
   14.600   1.837E+01
   14.700   1.848E+01
   14.800   1.854E+01
   14.900   1.854E+01
   15.000   1.848E+01
   15.100   1.837E+01
   15.200   1.821E+01
   15.300   1.800E+01
   15.400   1.774E+01
   15.500   1.744E+01
   15.600   1.711E+01
   15.700   1.674E+01
   15.800   1.635E+01
   15.900   1.594E+01
   16.000   1.552E+01
   16.100   1.508E+01
   16.200   1.464E+01
   16.300   1.419E+01
   16.400   1.375E+01
   16.500   1.331E+01
   16.600   1.287E+01
   16.700   1.245E+01
   16.800   1.204E+01
   16.900   1.164E+01
   17.000   1.125E+01
   17.100   1.088E+01
   17.200   1.052E+01
   17.300   1.018E+01
   17.400   9.852E+00
   17.500   9.539E+00
   17.600   9.239E+00
   17.700   8.953E+00
   17.800   8.679E+00
   17.900   8.417E+00
   18.000   8.166E+00
   18.100   7.925E+00
   18.200   7.694E+00
   18.300   7.471E+00
   18.400   7.256E+00
   18.500   7.048E+00
   18.600   6.847E+00
   18.700   6.651E+00
   18.800   6.462E+00
   18.900   6.277E+00
   19.000   6.098E+00
   19.100   5.923E+00
   19.200   5.754E+00
   19.300   5.588E+00
   19.400   5.427E+00
   19.500   5.271E+00
   19.600   5.119E+00
   19.700   4.971E+00
   19.800   4.828E+00
   19.900   4.689E+00
   20.000   4.554E+00
   20.100   4.424E+00
   20.200   4.298E+00
   20.300   4.176E+00
   20.400   4.058E+00
   20.500   3.944E+00
   20.600   3.834E+00
   20.700   3.729E+00
   20.800   3.627E+00
   20.900   3.528E+00
   21.000   3.434E+00
   21.100   3.342E+00
   21.200   3.255E+00
   21.300   3.170E+00
   21.400   3.088E+00
   21.500   3.010E+00
   21.600   2.934E+00
   21.700   2.861E+00
   21.800   2.791E+00
   21.900   2.723E+00
   22.000   2.658E+00
   22.100   2.595E+00
   22.200   2.534E+00
   22.300   2.475E+00
   22.400   2.419E+00
   22.500   2.364E+00
   22.600   2.311E+00
   22.700   2.260E+00
   22.800   2.211E+00
   22.900   2.164E+00
   23.000   2.118E+00
   23.100   2.073E+00
   23.200   2.030E+00
   23.300   1.989E+00
   23.400   1.949E+00
   23.500   1.910E+00
   23.600   1.873E+00
   23.700   1.836E+00
   23.800   1.801E+00
   23.900   1.767E+00
   24.000   1.734E+00
   24.100   1.702E+00
   24.200   1.671E+00
   24.300   1.641E+00
   24.400   1.612E+00
   24.500   1.584E+00
   24.600   1.557E+00
   24.700   1.530E+00
   24.800   1.504E+00
   24.900   1.479E+00
   25.000   1.455E+00
   25.100   1.432E+00
   25.200   1.409E+00
   25.300   1.386E+00
   25.400   1.365E+00
   25.500   1.344E+00
   25.600   1.323E+00
   25.700   1.304E+00
   25.800   1.284E+00
   25.900   1.265E+00
   26.000   1.247E+00
   26.100   1.229E+00
   26.200   1.212E+00
   26.300   1.195E+00
   26.400   1.178E+00
   26.500   1.162E+00
   26.600   1.146E+00
   26.700   1.131E+00
   26.800   1.116E+00
   26.900   1.101E+00
   27.000   1.087E+00
   27.100   1.073E+00
   27.200   1.059E+00
   27.300   1.045E+00
   27.400   1.032E+00
   27.500   1.019E+00
   27.600   1.006E+00
   27.700   9.937E-01
   27.800   9.814E-01
   27.900   9.694E-01
   28.000   9.575E-01
   28.100   9.459E-01
   28.200   9.345E-01
   28.300   9.232E-01
   28.400   9.122E-01
   28.500   9.013E-01
   28.600   8.906E-01
   28.700   8.801E-01
   28.800   8.697E-01
   28.900   8.595E-01
   29.000   8.494E-01
   29.100   8.394E-01
   29.200   8.296E-01
   29.300   8.199E-01
   29.400   8.103E-01
   29.500   8.008E-01
   29.600   7.915E-01
   29.700   7.823E-01
   29.800   7.732E-01
   29.900   7.643E-01
   30.000   7.555E-01
 
 Z=  49 A= 122  D1M-QRPA-Inter
 E[MeV]  fQRPA[mb/MeV]
    0.100   1.000E-04
    0.200   4.002E-04
    0.300   9.009E-04
    0.400   1.603E-03
    0.500   2.507E-03
    0.600   3.614E-03
    0.700   4.927E-03
    0.800   6.446E-03
    0.900   8.173E-03
    1.000   1.011E-02
    1.100   1.226E-02
    1.200   1.463E-02
    1.300   1.722E-02
    1.400   2.003E-02
    1.500   2.307E-02
    1.600   2.634E-02
    1.700   2.984E-02
    1.800   3.359E-02
    1.900   3.758E-02
    2.000   4.182E-02
    2.100   4.632E-02
    2.200   5.109E-02
    2.300   5.612E-02
    2.400   6.144E-02
    2.500   6.704E-02
    2.600   7.293E-02
    2.700   7.913E-02
    2.800   8.564E-02
    2.900   9.248E-02
    3.000   9.965E-02
    3.100   1.072E-01
    3.200   1.150E-01
    3.300   1.233E-01
    3.400   1.319E-01
    3.500   1.409E-01
    3.600   1.504E-01
    3.700   1.602E-01
    3.800   1.705E-01
    3.900   1.813E-01
    4.000   1.926E-01
    4.100   2.043E-01
    4.200   2.166E-01
    4.300   2.295E-01
    4.400   2.429E-01
    4.500   2.569E-01
    4.600   2.715E-01
    4.700   2.868E-01
    4.800   3.028E-01
    4.900   3.195E-01
    5.000   3.370E-01
    5.100   3.552E-01
    5.200   3.743E-01
    5.300   3.943E-01
    5.400   4.152E-01
    5.500   4.370E-01
    5.600   4.598E-01
    5.700   4.837E-01
    5.800   5.088E-01
    5.900   5.350E-01
    6.000   5.624E-01
    6.100   5.911E-01
    6.200   6.212E-01
    6.300   6.527E-01
    6.400   6.856E-01
    6.500   7.202E-01
    6.600   7.564E-01
    6.700   7.942E-01
    6.800   8.339E-01
    6.900   8.754E-01
    7.000   9.188E-01
    7.100   9.642E-01
    7.200   1.012E+00
    7.300   1.061E+00
    7.400   1.113E+00
    7.500   1.167E+00
    7.600   1.223E+00
    7.700   1.281E+00
    7.800   1.342E+00
    7.900   1.406E+00
    8.000   1.471E+00
    8.100   1.540E+00
    8.200   1.611E+00
    8.300   1.684E+00
    8.400   1.761E+00
    8.500   1.840E+00
    8.600   1.922E+00
    8.700   2.008E+00
    8.800   2.096E+00
    8.900   2.189E+00
    9.000   2.285E+00
    9.100   2.385E+00
    9.200   2.490E+00
    9.300   2.599E+00
    9.400   2.713E+00
    9.500   2.833E+00
    9.600   2.958E+00
    9.700   3.090E+00
    9.800   3.228E+00
    9.900   3.373E+00
   10.000   3.525E+00
   10.100   3.685E+00
   10.200   3.853E+00
   10.300   4.029E+00
   10.400   4.214E+00
   10.500   4.408E+00
   10.600   4.612E+00
   10.700   4.825E+00
   10.800   5.048E+00
   10.900   5.281E+00
   11.000   5.524E+00
   11.100   5.777E+00
   11.200   6.041E+00
   11.300   6.314E+00
   11.400   6.598E+00
   11.500   6.892E+00
   11.600   7.196E+00
   11.700   7.509E+00
   11.800   7.831E+00
   11.900   8.162E+00
   12.000   8.502E+00
   12.100   8.849E+00
   12.200   9.202E+00
   12.300   9.562E+00
   12.400   9.927E+00
   12.500   1.030E+01
   12.600   1.067E+01
   12.700   1.104E+01
   12.800   1.141E+01
   12.900   1.178E+01
   13.000   1.214E+01
   13.100   1.249E+01
   13.200   1.283E+01
   13.300   1.316E+01
   13.400   1.348E+01
   13.500   1.377E+01
   13.600   1.404E+01
   13.700   1.428E+01
   13.800   1.450E+01
   13.900   1.468E+01
   14.000   1.483E+01
   14.100   1.495E+01
   14.200   1.503E+01
   14.300   1.507E+01
   14.400   1.508E+01
   14.500   1.505E+01
   14.600   1.498E+01
   14.700   1.488E+01
   14.800   1.475E+01
   14.900   1.458E+01
   15.000   1.439E+01
   15.100   1.417E+01
   15.200   1.393E+01
   15.300   1.366E+01
   15.400   1.338E+01
   15.500   1.308E+01
   15.600   1.277E+01
   15.700   1.246E+01
   15.800   1.213E+01
   15.900   1.180E+01
   16.000   1.147E+01
   16.100   1.114E+01
   16.200   1.082E+01
   16.300   1.049E+01
   16.400   1.017E+01
   16.500   9.864E+00
   16.600   9.561E+00
   16.700   9.267E+00
   16.800   8.981E+00
   16.900   8.706E+00
   17.000   8.440E+00
   17.100   8.185E+00
   17.200   7.939E+00
   17.300   7.703E+00
   17.400   7.477E+00
   17.500   7.260E+00
   17.600   7.051E+00
   17.700   6.852E+00
   17.800   6.660E+00
   17.900   6.476E+00
   18.000   6.299E+00
   18.100   6.128E+00
   18.200   5.964E+00
   18.300   5.805E+00
   18.400   5.651E+00
   18.500   5.502E+00
   18.600   5.357E+00
   18.700   5.216E+00
   18.800   5.079E+00
   18.900   4.946E+00
   19.000   4.815E+00
   19.100   4.688E+00
   19.200   4.564E+00
   19.300   4.443E+00
   19.400   4.325E+00
   19.500   4.210E+00
   19.600   4.098E+00
   19.700   3.989E+00
   19.800   3.883E+00
   19.900   3.779E+00
   20.000   3.679E+00
   20.100   3.581E+00
   20.200   3.487E+00
   20.300   3.395E+00
   20.400   3.306E+00
   20.500   3.220E+00
   20.600   3.137E+00
   20.700   3.057E+00
   20.800   2.979E+00
   20.900   2.904E+00
   21.000   2.831E+00
   21.100   2.762E+00
   21.200   2.694E+00
   21.300   2.629E+00
   21.400   2.566E+00
   21.500   2.505E+00
   21.600   2.447E+00
   21.700   2.390E+00
   21.800   2.336E+00
   21.900   2.283E+00
   22.000   2.232E+00
   22.100   2.183E+00
   22.200   2.135E+00
   22.300   2.090E+00
   22.400   2.045E+00
   22.500   2.002E+00
   22.600   1.961E+00
   22.700   1.921E+00
   22.800   1.882E+00
   22.900   1.844E+00
   23.000   1.808E+00
   23.100   1.773E+00
   23.200   1.738E+00
   23.300   1.705E+00
   23.400   1.673E+00
   23.500   1.642E+00
   23.600   1.612E+00
   23.700   1.583E+00
   23.800   1.555E+00
   23.900   1.527E+00
   24.000   1.500E+00
   24.100   1.475E+00
   24.200   1.449E+00
   24.300   1.425E+00
   24.400   1.401E+00
   24.500   1.378E+00
   24.600   1.356E+00
   24.700   1.334E+00
   24.800   1.313E+00
   24.900   1.292E+00
   25.000   1.272E+00
   25.100   1.252E+00
   25.200   1.233E+00
   25.300   1.215E+00
   25.400   1.196E+00
   25.500   1.179E+00
   25.600   1.162E+00
   25.700   1.145E+00
   25.800   1.129E+00
   25.900   1.113E+00
   26.000   1.097E+00
   26.100   1.082E+00
   26.200   1.067E+00
   26.300   1.053E+00
   26.400   1.039E+00
   26.500   1.025E+00
   26.600   1.011E+00
   26.700   9.980E-01
   26.800   9.851E-01
   26.900   9.724E-01
   27.000   9.601E-01
   27.100   9.479E-01
   27.200   9.360E-01
   27.300   9.244E-01
   27.400   9.129E-01
   27.500   9.017E-01
   27.600   8.908E-01
   27.700   8.800E-01
   27.800   8.694E-01
   27.900   8.590E-01
   28.000   8.489E-01
   28.100   8.389E-01
   28.200   8.291E-01
   28.300   8.194E-01
   28.400   8.100E-01
   28.500   8.007E-01
   28.600   7.915E-01
   28.700   7.825E-01
   28.800   7.736E-01
   28.900   7.649E-01
   29.000   7.563E-01
   29.100   7.479E-01
   29.200   7.395E-01
   29.300   7.313E-01
   29.400   7.232E-01
   29.500   7.153E-01
   29.600   7.074E-01
   29.700   6.997E-01
   29.800   6.921E-01
   29.900   6.846E-01
   30.000   6.773E-01
 
 Z=  49 A= 123  D1M-QRPA-Inter
 E[MeV]  fQRPA[mb/MeV]
    0.100   1.485E-04
    0.200   5.940E-04
    0.300   1.337E-03
    0.400   2.379E-03
    0.500   3.722E-03
    0.600   5.366E-03
    0.700   7.315E-03
    0.800   9.571E-03
    0.900   1.214E-02
    1.000   1.502E-02
    1.100   1.822E-02
    1.200   2.174E-02
    1.300   2.559E-02
    1.400   2.977E-02
    1.500   3.429E-02
    1.600   3.916E-02
    1.700   4.438E-02
    1.800   4.996E-02
    1.900   5.591E-02
    2.000   6.224E-02
    2.100   6.895E-02
    2.200   7.606E-02
    2.300   8.359E-02
    2.400   9.153E-02
    2.500   9.990E-02
    2.600   1.087E-01
    2.700   1.180E-01
    2.800   1.278E-01
    2.900   1.380E-01
    3.000   1.488E-01
    3.100   1.600E-01
    3.200   1.719E-01
    3.300   1.843E-01
    3.400   1.972E-01
    3.500   2.108E-01
    3.600   2.250E-01
    3.700   2.399E-01
    3.800   2.555E-01
    3.900   2.718E-01
    4.000   2.888E-01
    4.100   3.066E-01
    4.200   3.252E-01
    4.300   3.446E-01
    4.400   3.650E-01
    4.500   3.863E-01
    4.600   4.085E-01
    4.700   4.317E-01
    4.800   4.561E-01
    4.900   4.815E-01
    5.000   5.081E-01
    5.100   5.359E-01
    5.200   5.651E-01
    5.300   5.955E-01
    5.400   6.274E-01
    5.500   6.608E-01
    5.600   6.958E-01
    5.700   7.324E-01
    5.800   7.707E-01
    5.900   8.109E-01
    6.000   8.530E-01
    6.100   8.971E-01
    6.200   9.433E-01
    6.300   9.917E-01
    6.400   1.042E+00
    6.500   1.096E+00
    6.600   1.151E+00
    6.700   1.210E+00
    6.800   1.271E+00
    6.900   1.335E+00
    7.000   1.402E+00
    7.100   1.472E+00
    7.200   1.546E+00
    7.300   1.623E+00
    7.400   1.703E+00
    7.500   1.787E+00
    7.600   1.875E+00
    7.700   1.967E+00
    7.800   2.063E+00
    7.900   2.163E+00
    8.000   2.268E+00
    8.100   2.377E+00
    8.200   2.491E+00
    8.300   2.610E+00
    8.400   2.735E+00
    8.500   2.864E+00
    8.600   3.000E+00
    8.700   3.142E+00
    8.800   3.291E+00
    8.900   3.446E+00
    9.000   3.609E+00
    9.100   3.780E+00
    9.200   3.959E+00
    9.300   4.147E+00
    9.400   4.344E+00
    9.500   4.551E+00
    9.600   4.769E+00
    9.700   4.997E+00
    9.800   5.236E+00
    9.900   5.487E+00
   10.000   5.751E+00
   10.100   6.026E+00
   10.200   6.315E+00
   10.300   6.617E+00
   10.400   6.932E+00
   10.500   7.261E+00
   10.600   7.603E+00
   10.700   7.958E+00
   10.800   8.325E+00
   10.900   8.705E+00
   11.000   9.097E+00
   11.100   9.500E+00
   11.200   9.912E+00
   11.300   1.033E+01
   11.400   1.076E+01
   11.500   1.119E+01
   11.600   1.163E+01
   11.700   1.207E+01
   11.800   1.251E+01
   11.900   1.295E+01
   12.000   1.338E+01
   12.100   1.380E+01
   12.200   1.422E+01
   12.300   1.462E+01
   12.400   1.501E+01
   12.500   1.537E+01
   12.600   1.572E+01
   12.700   1.605E+01
   12.800   1.635E+01
   12.900   1.662E+01
   13.000   1.686E+01
   13.100   1.707E+01
   13.200   1.725E+01
   13.300   1.739E+01
   13.400   1.749E+01
   13.500   1.756E+01
   13.600   1.759E+01
   13.700   1.758E+01
   13.800   1.753E+01
   13.900   1.744E+01
   14.000   1.732E+01
   14.100   1.716E+01
   14.200   1.698E+01
   14.300   1.676E+01
   14.400   1.651E+01
   14.500   1.624E+01
   14.600   1.595E+01
   14.700   1.564E+01
   14.800   1.531E+01
   14.900   1.497E+01
   15.000   1.462E+01
   15.100   1.426E+01
   15.200   1.390E+01
   15.300   1.354E+01
   15.400   1.317E+01
   15.500   1.281E+01
   15.600   1.245E+01
   15.700   1.210E+01
   15.800   1.175E+01
   15.900   1.140E+01
   16.000   1.107E+01
   16.100   1.075E+01
   16.200   1.043E+01
   16.300   1.013E+01
   16.400   9.829E+00
   16.500   9.544E+00
   16.600   9.268E+00
   16.700   9.002E+00
   16.800   8.747E+00
   16.900   8.501E+00
   17.000   8.264E+00
   17.100   8.037E+00
   17.200   7.818E+00
   17.300   7.608E+00
   17.400   7.406E+00
   17.500   7.212E+00
   17.600   7.025E+00
   17.700   6.845E+00
   17.800   6.671E+00
   17.900   6.504E+00
   18.000   6.342E+00
   18.100   6.185E+00
   18.200   6.034E+00
   18.300   5.887E+00
   18.400   5.744E+00
   18.500   5.606E+00
   18.600   5.471E+00
   18.700   5.339E+00
   18.800   5.211E+00
   18.900   5.086E+00
   19.000   4.963E+00
   19.100   4.844E+00
   19.200   4.726E+00
   19.300   4.612E+00
   19.400   4.500E+00
   19.500   4.390E+00
   19.600   4.283E+00
   19.700   4.178E+00
   19.800   4.076E+00
   19.900   3.976E+00
   20.000   3.879E+00
   20.100   3.784E+00
   20.200   3.692E+00
   20.300   3.603E+00
   20.400   3.516E+00
   20.500   3.432E+00
   20.600   3.350E+00
   20.700   3.271E+00
   20.800   3.194E+00
   20.900   3.120E+00
   21.000   3.048E+00
   21.100   2.978E+00
   21.200   2.911E+00
   21.300   2.846E+00
   21.400   2.783E+00
   21.500   2.722E+00
   21.600   2.663E+00
   21.700   2.606E+00
   21.800   2.551E+00
   21.900   2.498E+00
   22.000   2.447E+00
   22.100   2.397E+00
   22.200   2.349E+00
   22.300   2.302E+00
   22.400   2.257E+00
   22.500   2.214E+00
   22.600   2.171E+00
   22.700   2.130E+00
   22.800   2.090E+00
   22.900   2.052E+00
   23.000   2.014E+00
   23.100   1.978E+00
   23.200   1.943E+00
   23.300   1.909E+00
   23.400   1.875E+00
   23.500   1.843E+00
   23.600   1.812E+00
   23.700   1.781E+00
   23.800   1.752E+00
   23.900   1.723E+00
   24.000   1.695E+00
   24.100   1.667E+00
   24.200   1.641E+00
   24.300   1.615E+00
   24.400   1.589E+00
   24.500   1.565E+00
   24.600   1.541E+00
   24.700   1.517E+00
   24.800   1.495E+00
   24.900   1.472E+00
   25.000   1.451E+00
   25.100   1.430E+00
   25.200   1.409E+00
   25.300   1.389E+00
   25.400   1.369E+00
   25.500   1.350E+00
   25.600   1.331E+00
   25.700   1.312E+00
   25.800   1.294E+00
   25.900   1.277E+00
   26.000   1.260E+00
   26.100   1.243E+00
   26.200   1.226E+00
   26.300   1.210E+00
   26.400   1.195E+00
   26.500   1.179E+00
   26.600   1.164E+00
   26.700   1.149E+00
   26.800   1.135E+00
   26.900   1.121E+00
   27.000   1.107E+00
   27.100   1.093E+00
   27.200   1.080E+00
   27.300   1.067E+00
   27.400   1.054E+00
   27.500   1.042E+00
   27.600   1.029E+00
   27.700   1.017E+00
   27.800   1.005E+00
   27.900   9.937E-01
   28.000   9.823E-01
   28.100   9.711E-01
   28.200   9.601E-01
   28.300   9.493E-01
   28.400   9.387E-01
   28.500   9.283E-01
   28.600   9.181E-01
   28.700   9.081E-01
   28.800   8.982E-01
   28.900   8.886E-01
   29.000   8.791E-01
   29.100   8.697E-01
   29.200   8.605E-01
   29.300   8.515E-01
   29.400   8.426E-01
   29.500   8.339E-01
   29.600   8.253E-01
   29.700   8.169E-01
   29.800   8.086E-01
   29.900   8.004E-01
   30.000   7.924E-01
 
 Z=  49 A= 124  D1M-QRPA-Inter
 E[MeV]  fQRPA[mb/MeV]
    0.100   1.076E-04
    0.200   4.296E-04
    0.300   9.630E-04
    0.400   1.703E-03
    0.500   2.645E-03
    0.600   3.784E-03
    0.700   5.112E-03
    0.800   6.626E-03
    0.900   8.322E-03
    1.000   1.020E-02
    1.100   1.225E-02
    1.200   1.448E-02
    1.300   1.689E-02
    1.400   1.949E-02
    1.500   2.227E-02
    1.600   2.524E-02
    1.700   2.841E-02
    1.800   3.178E-02
    1.900   3.536E-02
    2.000   3.916E-02
    2.100   4.317E-02
    2.200   4.741E-02
    2.300   5.189E-02
    2.400   5.661E-02
    2.500   6.159E-02
    2.600   6.682E-02
    2.700   7.232E-02
    2.800   7.809E-02
    2.900   8.415E-02
    3.000   9.051E-02
    3.100   9.718E-02
    3.200   1.042E-01
    3.300   1.115E-01
    3.400   1.191E-01
    3.500   1.271E-01
    3.600   1.355E-01
    3.700   1.442E-01
    3.800   1.534E-01
    3.900   1.629E-01
    4.000   1.729E-01
    4.100   1.833E-01
    4.200   1.942E-01
    4.300   2.056E-01
    4.400   2.174E-01
    4.500   2.299E-01
    4.600   2.428E-01
    4.700   2.563E-01
    4.800   2.705E-01
    4.900   2.852E-01
    5.000   3.007E-01
    5.100   3.168E-01
    5.200   3.336E-01
    5.300   3.512E-01
    5.400   3.697E-01
    5.500   3.889E-01
    5.600   4.091E-01
    5.700   4.301E-01
    5.800   4.522E-01
    5.900   4.753E-01
    6.000   4.994E-01
    6.100   5.248E-01
    6.200   5.513E-01
    6.300   5.791E-01
    6.400   6.082E-01
    6.500   6.388E-01
    6.600   6.708E-01
    6.700   7.044E-01
    6.800   7.396E-01
    6.900   7.765E-01
    7.000   8.153E-01
    7.100   8.560E-01
    7.200   8.986E-01
    7.300   9.434E-01
    7.400   9.903E-01
    7.500   1.040E+00
    7.600   1.091E+00
    7.700   1.145E+00
    7.800   1.202E+00
    7.900   1.261E+00
    8.000   1.323E+00
    8.100   1.388E+00
    8.200   1.456E+00
    8.300   1.527E+00
    8.400   1.601E+00
    8.500   1.678E+00
    8.600   1.759E+00
    8.700   1.843E+00
    8.800   1.930E+00
    8.900   2.021E+00
    9.000   2.115E+00
    9.100   2.214E+00
    9.200   2.316E+00
    9.300   2.423E+00
    9.400   2.534E+00
    9.500   2.650E+00
    9.600   2.771E+00
    9.700   2.897E+00
    9.800   3.029E+00
    9.900   3.167E+00
   10.000   3.312E+00
   10.100   3.463E+00
   10.200   3.622E+00
   10.300   3.789E+00
   10.400   3.964E+00
   10.500   4.147E+00
   10.600   4.339E+00
   10.700   4.541E+00
   10.800   4.753E+00
   10.900   4.974E+00
   11.000   5.207E+00
   11.100   5.450E+00
   11.200   5.704E+00
   11.300   5.969E+00
   11.400   6.245E+00
   11.500   6.532E+00
   11.600   6.830E+00
   11.700   7.139E+00
   11.800   7.458E+00
   11.900   7.786E+00
   12.000   8.123E+00
   12.100   8.468E+00
   12.200   8.820E+00
   12.300   9.178E+00
   12.400   9.539E+00
   12.500   9.904E+00
   12.600   1.027E+01
   12.700   1.063E+01
   12.800   1.100E+01
   12.900   1.136E+01
   13.000   1.171E+01
   13.100   1.205E+01
   13.200   1.238E+01
   13.300   1.270E+01
   13.400   1.301E+01
   13.500   1.330E+01
   13.600   1.357E+01
   13.700   1.382E+01
   13.800   1.405E+01
   13.900   1.426E+01
   14.000   1.444E+01
   14.100   1.460E+01
   14.200   1.473E+01
   14.300   1.483E+01
   14.400   1.491E+01
   14.500   1.495E+01
   14.600   1.496E+01
   14.700   1.493E+01
   14.800   1.488E+01
   14.900   1.479E+01
   15.000   1.468E+01
   15.100   1.453E+01
   15.200   1.435E+01
   15.300   1.415E+01
   15.400   1.392E+01
   15.500   1.367E+01
   15.600   1.341E+01
   15.700   1.313E+01
   15.800   1.283E+01
   15.900   1.253E+01
   16.000   1.222E+01
   16.100   1.191E+01
   16.200   1.159E+01
   16.300   1.128E+01
   16.400   1.097E+01
   16.500   1.066E+01
   16.600   1.035E+01
   16.700   1.005E+01
   16.800   9.759E+00
   16.900   9.471E+00
   17.000   9.190E+00
   17.100   8.915E+00
   17.200   8.647E+00
   17.300   8.386E+00
   17.400   8.132E+00
   17.500   7.887E+00
   17.600   7.649E+00
   17.700   7.418E+00
   17.800   7.196E+00
   17.900   6.982E+00
   18.000   6.775E+00
   18.100   6.576E+00
   18.200   6.385E+00
   18.300   6.200E+00
   18.400   6.023E+00
   18.500   5.852E+00
   18.600   5.688E+00
   18.700   5.529E+00
   18.800   5.376E+00
   18.900   5.229E+00
   19.000   5.086E+00
   19.100   4.948E+00
   19.200   4.814E+00
   19.300   4.685E+00
   19.400   4.559E+00
   19.500   4.437E+00
   19.600   4.318E+00
   19.700   4.202E+00
   19.800   4.090E+00
   19.900   3.980E+00
   20.000   3.874E+00
   20.100   3.770E+00
   20.200   3.669E+00
   20.300   3.571E+00
   20.400   3.475E+00
   20.500   3.382E+00
   20.600   3.292E+00
   20.700   3.203E+00
   20.800   3.118E+00
   20.900   3.035E+00
   21.000   2.954E+00
   21.100   2.876E+00
   21.200   2.800E+00
   21.300   2.727E+00
   21.400   2.656E+00
   21.500   2.588E+00
   21.600   2.521E+00
   21.700   2.458E+00
   21.800   2.396E+00
   21.900   2.337E+00
   22.000   2.279E+00
   22.100   2.224E+00
   22.200   2.171E+00
   22.300   2.120E+00
   22.400   2.071E+00
   22.500   2.023E+00
   22.600   1.978E+00
   22.700   1.934E+00
   22.800   1.891E+00
   22.900   1.850E+00
   23.000   1.811E+00
   23.100   1.772E+00
   23.200   1.736E+00
   23.300   1.700E+00
   23.400   1.666E+00
   23.500   1.633E+00
   23.600   1.600E+00
   23.700   1.569E+00
   23.800   1.539E+00
   23.900   1.510E+00
   24.000   1.482E+00
   24.100   1.455E+00
   24.200   1.428E+00
   24.300   1.403E+00
   24.400   1.378E+00
   24.500   1.354E+00
   24.600   1.330E+00
   24.700   1.307E+00
   24.800   1.285E+00
   24.900   1.264E+00
   25.000   1.243E+00
   25.100   1.222E+00
   25.200   1.203E+00
   25.300   1.183E+00
   25.400   1.165E+00
   25.500   1.146E+00
   25.600   1.129E+00
   25.700   1.111E+00
   25.800   1.094E+00
   25.900   1.078E+00
   26.000   1.062E+00
   26.100   1.046E+00
   26.200   1.031E+00
   26.300   1.016E+00
   26.400   1.002E+00
   26.500   9.874E-01
   26.600   9.736E-01
   26.700   9.600E-01
   26.800   9.468E-01
   26.900   9.338E-01
   27.000   9.212E-01
   27.100   9.088E-01
   27.200   8.967E-01
   27.300   8.849E-01
   27.400   8.733E-01
   27.500   8.620E-01
   27.600   8.509E-01
   27.700   8.401E-01
   27.800   8.295E-01
   27.900   8.191E-01
   28.000   8.089E-01
   28.100   7.989E-01
   28.200   7.891E-01
   28.300   7.795E-01
   28.400   7.701E-01
   28.500   7.609E-01
   28.600   7.519E-01
   28.700   7.431E-01
   28.800   7.344E-01
   28.900   7.259E-01
   29.000   7.175E-01
   29.100   7.093E-01
   29.200   7.013E-01
   29.300   6.934E-01
   29.400   6.856E-01
   29.500   6.780E-01
   29.600   6.705E-01
   29.700   6.632E-01
   29.800   6.560E-01
   29.900   6.489E-01
   30.000   6.420E-01
 
 Z=  49 A= 125  D1M-QRPA-Inter
 E[MeV]  fQRPA[mb/MeV]
    0.100   1.051E-04
    0.200   4.183E-04
    0.300   9.337E-04
    0.400   1.642E-03
    0.500   2.532E-03
    0.600   3.592E-03
    0.700   4.810E-03
    0.800   6.176E-03
    0.900   7.682E-03
    1.000   9.322E-03
    1.100   1.109E-02
    1.200   1.299E-02
    1.300   1.502E-02
    1.400   1.718E-02
    1.500   1.948E-02
    1.600   2.191E-02
    1.700   2.449E-02
    1.800   2.723E-02
    1.900   3.012E-02
    2.000   3.317E-02
    2.100   3.639E-02
    2.200   3.979E-02
    2.300   4.338E-02
    2.400   4.715E-02
    2.500   5.112E-02
    2.600   5.529E-02
    2.700   5.967E-02
    2.800   6.427E-02
    2.900   6.909E-02
    3.000   7.415E-02
    3.100   7.945E-02
    3.200   8.499E-02
    3.300   9.079E-02
    3.400   9.685E-02
    3.500   1.032E-01
    3.600   1.098E-01
    3.700   1.167E-01
    3.800   1.240E-01
    3.900   1.315E-01
    4.000   1.394E-01
    4.100   1.476E-01
    4.200   1.562E-01
    4.300   1.651E-01
    4.400   1.744E-01
    4.500   1.842E-01
    4.600   1.943E-01
    4.700   2.049E-01
    4.800   2.160E-01
    4.900   2.275E-01
    5.000   2.395E-01
    5.100   2.521E-01
    5.200   2.652E-01
    5.300   2.789E-01
    5.400   2.932E-01
    5.500   3.082E-01
    5.600   3.238E-01
    5.700   3.401E-01
    5.800   3.572E-01
    5.900   3.751E-01
    6.000   3.938E-01
    6.100   4.133E-01
    6.200   4.338E-01
    6.300   4.553E-01
    6.400   4.778E-01
    6.500   5.014E-01
    6.600   5.262E-01
    6.700   5.522E-01
    6.800   5.795E-01
    6.900   6.082E-01
    7.000   6.384E-01
    7.100   6.701E-01
    7.200   7.034E-01
    7.300   7.384E-01
    7.400   7.753E-01
    7.500   8.141E-01
    7.600   8.549E-01
    7.700   8.977E-01
    7.800   9.428E-01
    7.900   9.901E-01
    8.000   1.040E+00
    8.100   1.092E+00
    8.200   1.146E+00
    8.300   1.203E+00
    8.400   1.262E+00
    8.500   1.324E+00
    8.600   1.389E+00
    8.700   1.455E+00
    8.800   1.524E+00
    8.900   1.596E+00
    9.000   1.670E+00
    9.100   1.746E+00
    9.200   1.825E+00
    9.300   1.906E+00
    9.400   1.990E+00
    9.500   2.077E+00
    9.600   2.168E+00
    9.700   2.261E+00
    9.800   2.359E+00
    9.900   2.461E+00
   10.000   2.568E+00
   10.100   2.680E+00
   10.200   2.797E+00
   10.300   2.921E+00
   10.400   3.051E+00
   10.500   3.189E+00
   10.600   3.335E+00
   10.700   3.489E+00
   10.800   3.653E+00
   10.900   3.827E+00
   11.000   4.012E+00
   11.100   4.209E+00
   11.200   4.419E+00
   11.300   4.642E+00
   11.400   4.880E+00
   11.500   5.132E+00
   11.600   5.401E+00
   11.700   5.685E+00
   11.800   5.987E+00
   11.900   6.305E+00
   12.000   6.642E+00
   12.100   6.996E+00
   12.200   7.368E+00
   12.300   7.758E+00
   12.400   8.166E+00
   12.500   8.591E+00
   12.600   9.032E+00
   12.700   9.489E+00
   12.800   9.960E+00
   12.900   1.045E+01
   13.000   1.094E+01
   13.100   1.145E+01
   13.200   1.197E+01
   13.300   1.250E+01
   13.400   1.303E+01
   13.500   1.356E+01
   13.600   1.410E+01
   13.700   1.464E+01
   13.800   1.517E+01
   13.900   1.570E+01
   14.000   1.622E+01
   14.100   1.673E+01
   14.200   1.722E+01
   14.300   1.768E+01
   14.400   1.812E+01
   14.500   1.852E+01
   14.600   1.889E+01
   14.700   1.921E+01
   14.800   1.947E+01
   14.900   1.968E+01
   15.000   1.983E+01
   15.100   1.992E+01
   15.200   1.995E+01
   15.300   1.991E+01
   15.400   1.981E+01
   15.500   1.965E+01
   15.600   1.944E+01
   15.700   1.918E+01
   15.800   1.887E+01
   15.900   1.853E+01
   16.000   1.816E+01
   16.100   1.776E+01
   16.200   1.734E+01
   16.300   1.691E+01
   16.400   1.647E+01
   16.500   1.602E+01
   16.600   1.557E+01
   16.700   1.512E+01
   16.800   1.466E+01
   16.900   1.421E+01
   17.000   1.376E+01
   17.100   1.331E+01
   17.200   1.288E+01
   17.300   1.245E+01
   17.400   1.202E+01
   17.500   1.161E+01
   17.600   1.121E+01
   17.700   1.083E+01
   17.800   1.045E+01
   17.900   1.009E+01
   18.000   9.746E+00
   18.100   9.414E+00
   18.200   9.097E+00
   18.300   8.793E+00
   18.400   8.503E+00
   18.500   8.226E+00
   18.600   7.962E+00
   18.700   7.710E+00
   18.800   7.468E+00
   18.900   7.238E+00
   19.000   7.017E+00
   19.100   6.806E+00
   19.200   6.602E+00
   19.300   6.407E+00
   19.400   6.219E+00
   19.500   6.037E+00
   19.600   5.861E+00
   19.700   5.691E+00
   19.800   5.526E+00
   19.900   5.365E+00
   20.000   5.209E+00
   20.100   5.057E+00
   20.200   4.910E+00
   20.300   4.765E+00
   20.400   4.625E+00
   20.500   4.488E+00
   20.600   4.355E+00
   20.700   4.225E+00
   20.800   4.098E+00
   20.900   3.975E+00
   21.000   3.856E+00
   21.100   3.740E+00
   21.200   3.627E+00
   21.300   3.519E+00
   21.400   3.413E+00
   21.500   3.312E+00
   21.600   3.214E+00
   21.700   3.120E+00
   21.800   3.030E+00
   21.900   2.943E+00
   22.000   2.859E+00
   22.100   2.779E+00
   22.200   2.702E+00
   22.300   2.629E+00
   22.400   2.558E+00
   22.500   2.490E+00
   22.600   2.425E+00
   22.700   2.363E+00
   22.800   2.304E+00
   22.900   2.246E+00
   23.000   2.191E+00
   23.100   2.138E+00
   23.200   2.088E+00
   23.300   2.039E+00
   23.400   1.992E+00
   23.500   1.947E+00
   23.600   1.904E+00
   23.700   1.862E+00
   23.800   1.822E+00
   23.900   1.783E+00
   24.000   1.745E+00
   24.100   1.709E+00
   24.200   1.674E+00
   24.300   1.641E+00
   24.400   1.608E+00
   24.500   1.577E+00
   24.600   1.546E+00
   24.700   1.517E+00
   24.800   1.488E+00
   24.900   1.460E+00
   25.000   1.434E+00
   25.100   1.408E+00
   25.200   1.382E+00
   25.300   1.358E+00
   25.400   1.334E+00
   25.500   1.311E+00
   25.600   1.289E+00
   25.700   1.267E+00
   25.800   1.246E+00
   25.900   1.225E+00
   26.000   1.205E+00
   26.100   1.186E+00
   26.200   1.167E+00
   26.300   1.149E+00
   26.400   1.131E+00
   26.500   1.113E+00
   26.600   1.096E+00
   26.700   1.080E+00
   26.800   1.063E+00
   26.900   1.048E+00
   27.000   1.032E+00
   27.100   1.017E+00
   27.200   1.003E+00
   27.300   9.883E-01
   27.400   9.743E-01
   27.500   9.606E-01
   27.600   9.473E-01
   27.700   9.342E-01
   27.800   9.215E-01
   27.900   9.090E-01
   28.000   8.969E-01
   28.100   8.850E-01
   28.200   8.733E-01
   28.300   8.619E-01
   28.400   8.508E-01
   28.500   8.398E-01
   28.600   8.291E-01
   28.700   8.187E-01
   28.800   8.084E-01
   28.900   7.984E-01
   29.000   7.886E-01
   29.100   7.789E-01
   29.200   7.695E-01
   29.300   7.602E-01
   29.400   7.511E-01
   29.500   7.422E-01
   29.600   7.335E-01
   29.700   7.250E-01
   29.800   7.166E-01
   29.900   7.083E-01
   30.000   7.002E-01
 
 Z=  49 A= 126  D1M-QRPA-Inter
 E[MeV]  fQRPA[mb/MeV]
    0.100   1.774E-04
    0.200   5.955E-04
    0.300   1.156E-03
    0.400   1.831E-03
    0.500   2.611E-03
    0.600   3.494E-03
    0.700   4.478E-03
    0.800   5.563E-03
    0.900   6.751E-03
    1.000   8.043E-03
    1.100   9.440E-03
    1.200   1.095E-02
    1.300   1.257E-02
    1.400   1.430E-02
    1.500   1.615E-02
    1.600   1.813E-02
    1.700   2.023E-02
    1.800   2.246E-02
    1.900   2.483E-02
    2.000   2.734E-02
    2.100   3.000E-02
    2.200   3.280E-02
    2.300   3.576E-02
    2.400   3.888E-02
    2.500   4.216E-02
    2.600   4.561E-02
    2.700   4.924E-02
    2.800   5.304E-02
    2.900   5.704E-02
    3.000   6.122E-02
    3.100   6.560E-02
    3.200   7.019E-02
    3.300   7.499E-02
    3.400   8.001E-02
    3.500   8.526E-02
    3.600   9.074E-02
    3.700   9.646E-02
    3.800   1.024E-01
    3.900   1.087E-01
    4.000   1.152E-01
    4.100   1.220E-01
    4.200   1.291E-01
    4.300   1.365E-01
    4.400   1.442E-01
    4.500   1.522E-01
    4.600   1.606E-01
    4.700   1.694E-01
    4.800   1.785E-01
    4.900   1.880E-01
    5.000   1.980E-01
    5.100   2.084E-01
    5.200   2.192E-01
    5.300   2.305E-01
    5.400   2.423E-01
    5.500   2.547E-01
    5.600   2.676E-01
    5.700   2.811E-01
    5.800   2.952E-01
    5.900   3.099E-01
    6.000   3.254E-01
    6.100   3.415E-01
    6.200   3.584E-01
    6.300   3.762E-01
    6.400   3.947E-01
    6.500   4.142E-01
    6.600   4.347E-01
    6.700   4.561E-01
    6.800   4.786E-01
    6.900   5.023E-01
    7.000   5.272E-01
    7.100   5.533E-01
    7.200   5.807E-01
    7.300   6.096E-01
    7.400   6.399E-01
    7.500   6.718E-01
    7.600   7.053E-01
    7.700   7.405E-01
    7.800   7.775E-01
    7.900   8.162E-01
    8.000   8.569E-01
    8.100   8.994E-01
    8.200   9.438E-01
    8.300   9.902E-01
    8.400   1.039E+00
    8.500   1.089E+00
    8.600   1.141E+00
    8.700   1.195E+00
    8.800   1.251E+00
    8.900   1.309E+00
    9.000   1.369E+00
    9.100   1.431E+00
    9.200   1.495E+00
    9.300   1.562E+00
    9.400   1.630E+00
    9.500   1.702E+00
    9.600   1.776E+00
    9.700   1.853E+00
    9.800   1.934E+00
    9.900   2.018E+00
   10.000   2.106E+00
   10.100   2.199E+00
   10.200   2.296E+00
   10.300   2.398E+00
   10.400   2.506E+00
   10.500   2.620E+00
   10.600   2.741E+00
   10.700   2.869E+00
   10.800   3.004E+00
   10.900   3.148E+00
   11.000   3.301E+00
   11.100   3.463E+00
   11.200   3.636E+00
   11.300   3.819E+00
   11.400   4.015E+00
   11.500   4.223E+00
   11.600   4.443E+00
   11.700   4.678E+00
   11.800   4.927E+00
   11.900   5.190E+00
   12.000   5.468E+00
   12.100   5.762E+00
   12.200   6.072E+00
   12.300   6.398E+00
   12.400   6.740E+00
   12.500   7.098E+00
   12.600   7.471E+00
   12.700   7.861E+00
   12.800   8.266E+00
   12.900   8.685E+00
   13.000   9.118E+00
   13.100   9.563E+00
   13.200   1.002E+01
   13.300   1.049E+01
   13.400   1.096E+01
   13.500   1.144E+01
   13.600   1.192E+01
   13.700   1.241E+01
   13.800   1.289E+01
   13.900   1.337E+01
   14.000   1.383E+01
   14.100   1.429E+01
   14.200   1.473E+01
   14.300   1.514E+01
   14.400   1.553E+01
   14.500   1.589E+01
   14.600   1.620E+01
   14.700   1.647E+01
   14.800   1.670E+01
   14.900   1.687E+01
   15.000   1.698E+01
   15.100   1.703E+01
   15.200   1.703E+01
   15.300   1.697E+01
   15.400   1.685E+01
   15.500   1.668E+01
   15.600   1.646E+01
   15.700   1.620E+01
   15.800   1.590E+01
   15.900   1.557E+01
   16.000   1.522E+01
   16.100   1.484E+01
   16.200   1.445E+01
   16.300   1.405E+01
   16.400   1.364E+01
   16.500   1.322E+01
   16.600   1.281E+01
   16.700   1.239E+01
   16.800   1.199E+01
   16.900   1.158E+01
   17.000   1.119E+01
   17.100   1.081E+01
   17.200   1.043E+01
   17.300   1.007E+01
   17.400   9.715E+00
   17.500   9.376E+00
   17.600   9.050E+00
   17.700   8.737E+00
   17.800   8.437E+00
   17.900   8.150E+00
   18.000   7.875E+00
   18.100   7.613E+00
   18.200   7.362E+00
   18.300   7.122E+00
   18.400   6.893E+00
   18.500   6.673E+00
   18.600   6.462E+00
   18.700   6.260E+00
   18.800   6.066E+00
   18.900   5.879E+00
   19.000   5.698E+00
   19.100   5.524E+00
   19.200   5.355E+00
   19.300   5.191E+00
   19.400   5.032E+00
   19.500   4.877E+00
   19.600   4.727E+00
   19.700   4.581E+00
   19.800   4.439E+00
   19.900   4.302E+00
   20.000   4.168E+00
   20.100   4.038E+00
   20.200   3.911E+00
   20.300   3.789E+00
   20.400   3.671E+00
   20.500   3.556E+00
   20.600   3.445E+00
   20.700   3.338E+00
   20.800   3.235E+00
   20.900   3.135E+00
   21.000   3.039E+00
   21.100   2.947E+00
   21.200   2.858E+00
   21.300   2.772E+00
   21.400   2.690E+00
   21.500   2.611E+00
   21.600   2.535E+00
   21.700   2.462E+00
   21.800   2.393E+00
   21.900   2.326E+00
   22.000   2.262E+00
   22.100   2.200E+00
   22.200   2.142E+00
   22.300   2.085E+00
   22.400   2.031E+00
   22.500   1.979E+00
   22.600   1.929E+00
   22.700   1.882E+00
   22.800   1.836E+00
   22.900   1.792E+00
   23.000   1.749E+00
   23.100   1.709E+00
   23.200   1.669E+00
   23.300   1.632E+00
   23.400   1.595E+00
   23.500   1.560E+00
   23.600   1.527E+00
   23.700   1.494E+00
   23.800   1.463E+00
   23.900   1.433E+00
   24.000   1.403E+00
   24.100   1.375E+00
   24.200   1.348E+00
   24.300   1.321E+00
   24.400   1.296E+00
   24.500   1.271E+00
   24.600   1.247E+00
   24.700   1.224E+00
   24.800   1.201E+00
   24.900   1.180E+00
   25.000   1.158E+00
   25.100   1.138E+00
   25.200   1.118E+00
   25.300   1.099E+00
   25.400   1.080E+00
   25.500   1.062E+00
   25.600   1.044E+00
   25.700   1.027E+00
   25.800   1.010E+00
   25.900   9.934E-01
   26.000   9.775E-01
   26.100   9.620E-01
   26.200   9.469E-01
   26.300   9.322E-01
   26.400   9.179E-01
   26.500   9.039E-01
   26.600   8.903E-01
   26.700   8.771E-01
   26.800   8.641E-01
   26.900   8.515E-01
   27.000   8.391E-01
   27.100   8.271E-01
   27.200   8.153E-01
   27.300   8.039E-01
   27.400   7.926E-01
   27.500   7.817E-01
   27.600   7.710E-01
   27.700   7.605E-01
   27.800   7.503E-01
   27.900   7.403E-01
   28.000   7.305E-01
   28.100   7.209E-01
   28.200   7.115E-01
   28.300   7.023E-01
   28.400   6.933E-01
   28.500   6.845E-01
   28.600   6.759E-01
   28.700   6.675E-01
   28.800   6.592E-01
   28.900   6.511E-01
   29.000   6.432E-01
   29.100   6.354E-01
   29.200   6.278E-01
   29.300   6.203E-01
   29.400   6.130E-01
   29.500   6.058E-01
   29.600   5.987E-01
   29.700   5.918E-01
   29.800   5.850E-01
   29.900   5.784E-01
   30.000   5.718E-01
 
 Z=  49 A= 127  D1M-QRPA-Inter
 E[MeV]  fQRPA[mb/MeV]
    0.100   4.332E-04
    0.200   1.226E-03
    0.300   2.071E-03
    0.400   2.954E-03
    0.500   3.897E-03
    0.600   4.918E-03
    0.700   6.032E-03
    0.800   7.250E-03
    0.900   8.583E-03
    1.000   1.004E-02
    1.100   1.162E-02
    1.200   1.335E-02
    1.300   1.521E-02
    1.400   1.722E-02
    1.500   1.938E-02
    1.600   2.170E-02
    1.700   2.417E-02
    1.800   2.681E-02
    1.900   2.962E-02
    2.000   3.261E-02
    2.100   3.577E-02
    2.200   3.912E-02
    2.300   4.265E-02
    2.400   4.638E-02
    2.500   5.031E-02
    2.600   5.444E-02
    2.700   5.878E-02
    2.800   6.334E-02
    2.900   6.812E-02
    3.000   7.313E-02
    3.100   7.838E-02
    3.200   8.388E-02
    3.300   8.962E-02
    3.400   9.563E-02
    3.500   1.019E-01
    3.600   1.085E-01
    3.700   1.153E-01
    3.800   1.225E-01
    3.900   1.299E-01
    4.000   1.377E-01
    4.100   1.459E-01
    4.200   1.543E-01
    4.300   1.632E-01
    4.400   1.724E-01
    4.500   1.820E-01
    4.600   1.921E-01
    4.700   2.026E-01
    4.800   2.135E-01
    4.900   2.249E-01
    5.000   2.368E-01
    5.100   2.492E-01
    5.200   2.621E-01
    5.300   2.757E-01
    5.400   2.898E-01
    5.500   3.045E-01
    5.600   3.200E-01
    5.700   3.361E-01
    5.800   3.529E-01
    5.900   3.705E-01
    6.000   3.890E-01
    6.100   4.083E-01
    6.200   4.285E-01
    6.300   4.497E-01
    6.400   4.719E-01
    6.500   4.951E-01
    6.600   5.195E-01
    6.700   5.451E-01
    6.800   5.720E-01
    6.900   6.002E-01
    7.000   6.299E-01
    7.100   6.610E-01
    7.200   6.937E-01
    7.300   7.281E-01
    7.400   7.642E-01
    7.500   8.021E-01
    7.600   8.420E-01
    7.700   8.838E-01
    7.800   9.277E-01
    7.900   9.736E-01
    8.000   1.022E+00
    8.100   1.072E+00
    8.200   1.124E+00
    8.300   1.179E+00
    8.400   1.236E+00
    8.500   1.295E+00
    8.600   1.357E+00
    8.700   1.420E+00
    8.800   1.486E+00
    8.900   1.554E+00
    9.000   1.625E+00
    9.100   1.697E+00
    9.200   1.773E+00
    9.300   1.851E+00
    9.400   1.933E+00
    9.500   2.017E+00
    9.600   2.105E+00
    9.700   2.197E+00
    9.800   2.293E+00
    9.900   2.394E+00
   10.000   2.499E+00
   10.100   2.610E+00
   10.200   2.727E+00
   10.300   2.849E+00
   10.400   2.979E+00
   10.500   3.115E+00
   10.600   3.260E+00
   10.700   3.412E+00
   10.800   3.574E+00
   10.900   3.746E+00
   11.000   3.928E+00
   11.100   4.122E+00
   11.200   4.328E+00
   11.300   4.547E+00
   11.400   4.779E+00
   11.500   5.027E+00
   11.600   5.290E+00
   11.700   5.569E+00
   11.800   5.866E+00
   11.900   6.181E+00
   12.000   6.514E+00
   12.100   6.867E+00
   12.200   7.240E+00
   12.300   7.634E+00
   12.400   8.048E+00
   12.500   8.485E+00
   12.600   8.943E+00
   12.700   9.423E+00
   12.800   9.925E+00
   12.900   1.045E+01
   13.000   1.099E+01
   13.100   1.155E+01
   13.200   1.214E+01
   13.300   1.273E+01
   13.400   1.334E+01
   13.500   1.396E+01
   13.600   1.459E+01
   13.700   1.522E+01
   13.800   1.584E+01
   13.900   1.646E+01
   14.000   1.707E+01
   14.100   1.766E+01
   14.200   1.823E+01
   14.300   1.876E+01
   14.400   1.926E+01
   14.500   1.971E+01
   14.600   2.011E+01
   14.700   2.045E+01
   14.800   2.071E+01
   14.900   2.091E+01
   15.000   2.103E+01
   15.100   2.107E+01
   15.200   2.104E+01
   15.300   2.092E+01
   15.400   2.074E+01
   15.500   2.049E+01
   15.600   2.017E+01
   15.700   1.981E+01
   15.800   1.939E+01
   15.900   1.894E+01
   16.000   1.845E+01
   16.100   1.794E+01
   16.200   1.742E+01
   16.300   1.688E+01
   16.400   1.633E+01
   16.500   1.579E+01
   16.600   1.524E+01
   16.700   1.471E+01
   16.800   1.418E+01
   16.900   1.367E+01
   17.000   1.317E+01
   17.100   1.269E+01
   17.200   1.223E+01
   17.300   1.178E+01
   17.400   1.136E+01
   17.500   1.095E+01
   17.600   1.057E+01
   17.700   1.020E+01
   17.800   9.854E+00
   17.900   9.522E+00
   18.000   9.207E+00
   18.100   8.907E+00
   18.200   8.620E+00
   18.300   8.346E+00
   18.400   8.084E+00
   18.500   7.832E+00
   18.600   7.589E+00
   18.700   7.355E+00
   18.800   7.128E+00
   18.900   6.909E+00
   19.000   6.695E+00
   19.100   6.486E+00
   19.200   6.283E+00
   19.300   6.085E+00
   19.400   5.891E+00
   19.500   5.701E+00
   19.600   5.516E+00
   19.700   5.336E+00
   19.800   5.161E+00
   19.900   4.990E+00
   20.000   4.824E+00
   20.100   4.664E+00
   20.200   4.509E+00
   20.300   4.359E+00
   20.400   4.215E+00
   20.500   4.077E+00
   20.600   3.944E+00
   20.700   3.817E+00
   20.800   3.695E+00
   20.900   3.578E+00
   21.000   3.466E+00
   21.100   3.359E+00
   21.200   3.258E+00
   21.300   3.160E+00
   21.400   3.067E+00
   21.500   2.978E+00
   21.600   2.893E+00
   21.700   2.812E+00
   21.800   2.734E+00
   21.900   2.660E+00
   22.000   2.589E+00
   22.100   2.521E+00
   22.200   2.456E+00
   22.300   2.393E+00
   22.400   2.333E+00
   22.500   2.276E+00
   22.600   2.221E+00
   22.700   2.168E+00
   22.800   2.117E+00
   22.900   2.068E+00
   23.000   2.020E+00
   23.100   1.975E+00
   23.200   1.931E+00
   23.300   1.889E+00
   23.400   1.849E+00
   23.500   1.809E+00
   23.600   1.772E+00
   23.700   1.735E+00
   23.800   1.700E+00
   23.900   1.666E+00
   24.000   1.633E+00
   24.100   1.601E+00
   24.200   1.570E+00
   24.300   1.540E+00
   24.400   1.511E+00
   24.500   1.483E+00
   24.600   1.455E+00
   24.700   1.429E+00
   24.800   1.403E+00
   24.900   1.379E+00
   25.000   1.354E+00
   25.100   1.331E+00
   25.200   1.308E+00
   25.300   1.286E+00
   25.400   1.264E+00
   25.500   1.243E+00
   25.600   1.223E+00
   25.700   1.203E+00
   25.800   1.184E+00
   25.900   1.165E+00
   26.000   1.147E+00
   26.100   1.129E+00
   26.200   1.112E+00
   26.300   1.095E+00
   26.400   1.078E+00
   26.500   1.062E+00
   26.600   1.046E+00
   26.700   1.031E+00
   26.800   1.016E+00
   26.900   1.001E+00
   27.000   9.870E-01
   27.100   9.730E-01
   27.200   9.594E-01
   27.300   9.461E-01
   27.400   9.331E-01
   27.500   9.204E-01
   27.600   9.079E-01
   27.700   8.957E-01
   27.800   8.838E-01
   27.900   8.722E-01
   28.000   8.608E-01
   28.100   8.496E-01
   28.200   8.387E-01
   28.300   8.280E-01
   28.400   8.176E-01
   28.500   8.073E-01
   28.600   7.973E-01
   28.700   7.874E-01
   28.800   7.778E-01
   28.900   7.683E-01
   29.000   7.591E-01
   29.100   7.500E-01
   29.200   7.411E-01
   29.300   7.323E-01
   29.400   7.238E-01
   29.500   7.154E-01
   29.600   7.071E-01
   29.700   6.990E-01
   29.800   6.911E-01
   29.900   6.833E-01
   30.000   6.756E-01
 
 Z=  49 A= 128  D1M-QRPA-Inter
 E[MeV]  fQRPA[mb/MeV]
    0.100   2.136E-04
    0.200   7.180E-04
    0.300   1.397E-03
    0.400   2.219E-03
    0.500   3.175E-03
    0.600   4.265E-03
    0.700   5.488E-03
    0.800   6.847E-03
    0.900   8.343E-03
    1.000   9.979E-03
    1.100   1.176E-02
    1.200   1.369E-02
    1.300   1.576E-02
    1.400   1.799E-02
    1.500   2.038E-02
    1.600   2.294E-02
    1.700   2.566E-02
    1.800   2.855E-02
    1.900   3.162E-02
    2.000   3.488E-02
    2.100   3.833E-02
    2.200   4.198E-02
    2.300   4.583E-02
    2.400   4.988E-02
    2.500   5.416E-02
    2.600   5.866E-02
    2.700   6.338E-02
    2.800   6.835E-02
    2.900   7.356E-02
    3.000   7.903E-02
    3.100   8.476E-02
    3.200   9.076E-02
    3.300   9.704E-02
    3.400   1.036E-01
    3.500   1.105E-01
    3.600   1.177E-01
    3.700   1.252E-01
    3.800   1.330E-01
    3.900   1.412E-01
    4.000   1.498E-01
    4.100   1.588E-01
    4.200   1.681E-01
    4.300   1.778E-01
    4.400   1.880E-01
    4.500   1.987E-01
    4.600   2.098E-01
    4.700   2.214E-01
    4.800   2.335E-01
    4.900   2.461E-01
    5.000   2.593E-01
    5.100   2.731E-01
    5.200   2.875E-01
    5.300   3.026E-01
    5.400   3.183E-01
    5.500   3.348E-01
    5.600   3.520E-01
    5.700   3.700E-01
    5.800   3.889E-01
    5.900   4.087E-01
    6.000   4.293E-01
    6.100   4.510E-01
    6.200   4.737E-01
    6.300   4.975E-01
    6.400   5.225E-01
    6.500   5.487E-01
    6.600   5.763E-01
    6.700   6.052E-01
    6.800   6.356E-01
    6.900   6.675E-01
    7.000   7.011E-01
    7.100   7.364E-01
    7.200   7.736E-01
    7.300   8.127E-01
    7.400   8.538E-01
    7.500   8.970E-01
    7.600   9.425E-01
    7.700   9.904E-01
    7.800   1.041E+00
    7.900   1.093E+00
    8.000   1.149E+00
    8.100   1.207E+00
    8.200   1.268E+00
    8.300   1.332E+00
    8.400   1.398E+00
    8.500   1.468E+00
    8.600   1.541E+00
    8.700   1.617E+00
    8.800   1.696E+00
    8.900   1.779E+00
    9.000   1.865E+00
    9.100   1.956E+00
    9.200   2.050E+00
    9.300   2.149E+00
    9.400   2.254E+00
    9.500   2.363E+00
    9.600   2.478E+00
    9.700   2.599E+00
    9.800   2.727E+00
    9.900   2.862E+00
   10.000   3.004E+00
   10.100   3.155E+00
   10.200   3.315E+00
   10.300   3.485E+00
   10.400   3.665E+00
   10.500   3.856E+00
   10.600   4.059E+00
   10.700   4.275E+00
   10.800   4.505E+00
   10.900   4.749E+00
   11.000   5.010E+00
   11.100   5.286E+00
   11.200   5.581E+00
   11.300   5.894E+00
   11.400   6.226E+00
   11.500   6.578E+00
   11.600   6.950E+00
   11.700   7.342E+00
   11.800   7.755E+00
   11.900   8.189E+00
   12.000   8.641E+00
   12.100   9.111E+00
   12.200   9.598E+00
   12.300   1.010E+01
   12.400   1.061E+01
   12.500   1.114E+01
   12.600   1.166E+01
   12.700   1.219E+01
   12.800   1.272E+01
   12.900   1.324E+01
   13.000   1.375E+01
   13.100   1.425E+01
   13.200   1.472E+01
   13.300   1.517E+01
   13.400   1.559E+01
   13.500   1.598E+01
   13.600   1.633E+01
   13.700   1.664E+01
   13.800   1.691E+01
   13.900   1.713E+01
   14.000   1.731E+01
   14.100   1.745E+01
   14.200   1.754E+01
   14.300   1.758E+01
   14.400   1.758E+01
   14.500   1.753E+01
   14.600   1.744E+01
   14.700   1.731E+01
   14.800   1.713E+01
   14.900   1.692E+01
   15.000   1.666E+01
   15.100   1.638E+01
   15.200   1.606E+01
   15.300   1.572E+01
   15.400   1.535E+01
   15.500   1.497E+01
   15.600   1.457E+01
   15.700   1.416E+01
   15.800   1.374E+01
   15.900   1.332E+01
   16.000   1.290E+01
   16.100   1.249E+01
   16.200   1.207E+01
   16.300   1.166E+01
   16.400   1.126E+01
   16.500   1.087E+01
   16.600   1.049E+01
   16.700   1.013E+01
   16.800   9.768E+00
   16.900   9.423E+00
   17.000   9.091E+00
   17.100   8.771E+00
   17.200   8.464E+00
   17.300   8.169E+00
   17.400   7.886E+00
   17.500   7.615E+00
   17.600   7.356E+00
   17.700   7.108E+00
   17.800   6.870E+00
   17.900   6.643E+00
   18.000   6.425E+00
   18.100   6.216E+00
   18.200   6.015E+00
   18.300   5.822E+00
   18.400   5.637E+00
   18.500   5.459E+00
   18.600   5.287E+00
   18.700   5.121E+00
   18.800   4.961E+00
   18.900   4.807E+00
   19.000   4.657E+00
   19.100   4.513E+00
   19.200   4.373E+00
   19.300   4.237E+00
   19.400   4.106E+00
   19.500   3.979E+00
   19.600   3.856E+00
   19.700   3.738E+00
   19.800   3.623E+00
   19.900   3.512E+00
   20.000   3.405E+00
   20.100   3.302E+00
   20.200   3.203E+00
   20.300   3.107E+00
   20.400   3.016E+00
   20.500   2.927E+00
   20.600   2.843E+00
   20.700   2.761E+00
   20.800   2.683E+00
   20.900   2.609E+00
   21.000   2.537E+00
   21.100   2.468E+00
   21.200   2.402E+00
   21.300   2.339E+00
   21.400   2.278E+00
   21.500   2.220E+00
   21.600   2.164E+00
   21.700   2.111E+00
   21.800   2.059E+00
   21.900   2.010E+00
   22.000   1.962E+00
   22.100   1.917E+00
   22.200   1.873E+00
   22.300   1.830E+00
   22.400   1.789E+00
   22.500   1.750E+00
   22.600   1.712E+00
   22.700   1.676E+00
   22.800   1.640E+00
   22.900   1.606E+00
   23.000   1.573E+00
   23.100   1.542E+00
   23.200   1.511E+00
   23.300   1.481E+00
   23.400   1.452E+00
   23.500   1.425E+00
   23.600   1.398E+00
   23.700   1.371E+00
   23.800   1.346E+00
   23.900   1.322E+00
   24.000   1.298E+00
   24.100   1.275E+00
   24.200   1.252E+00
   24.300   1.230E+00
   24.400   1.209E+00
   24.500   1.189E+00
   24.600   1.169E+00
   24.700   1.149E+00
   24.800   1.130E+00
   24.900   1.112E+00
   25.000   1.094E+00
   25.100   1.076E+00
   25.200   1.059E+00
   25.300   1.043E+00
   25.400   1.027E+00
   25.500   1.011E+00
   25.600   9.958E-01
   25.700   9.808E-01
   25.800   9.662E-01
   25.900   9.520E-01
   26.000   9.381E-01
   26.100   9.245E-01
   26.200   9.113E-01
   26.300   8.984E-01
   26.400   8.858E-01
   26.500   8.734E-01
   26.600   8.614E-01
   26.700   8.496E-01
   26.800   8.380E-01
   26.900   8.268E-01
   27.000   8.158E-01
   27.100   8.050E-01
   27.200   7.944E-01
   27.300   7.841E-01
   27.400   7.740E-01
   27.500   7.641E-01
   27.600   7.544E-01
   27.700   7.449E-01
   27.800   7.356E-01
   27.900   7.265E-01
   28.000   7.176E-01
   28.100   7.088E-01
   28.200   7.003E-01
   28.300   6.918E-01
   28.400   6.836E-01
   28.500   6.755E-01
   28.600   6.676E-01
   28.700   6.598E-01
   28.800   6.522E-01
   28.900   6.447E-01
   29.000   6.373E-01
   29.100   6.301E-01
   29.200   6.231E-01
   29.300   6.161E-01
   29.400   6.093E-01
   29.500   6.026E-01
   29.600   5.960E-01
   29.700   5.895E-01
   29.800   5.832E-01
   29.900   5.769E-01
   30.000   5.708E-01
 
 Z=  49 A= 129  D1M-QRPA-Inter
 E[MeV]  fQRPA[mb/MeV]
    0.100   1.250E-04
    0.200   4.989E-04
    0.300   1.118E-03
    0.400   1.978E-03
    0.500   3.071E-03
    0.600   4.390E-03
    0.700   5.927E-03
    0.800   7.674E-03
    0.900   9.625E-03
    1.000   1.177E-02
    1.100   1.412E-02
    1.200   1.666E-02
    1.300   1.939E-02
    1.400   2.232E-02
    1.500   2.545E-02
    1.600   2.878E-02
    1.700   3.232E-02
    1.800   3.608E-02
    1.900   4.007E-02
    2.000   4.429E-02
    2.100   4.875E-02
    2.200   5.347E-02
    2.300   5.844E-02
    2.400   6.368E-02
    2.500   6.920E-02
    2.600   7.502E-02
    2.700   8.113E-02
    2.800   8.755E-02
    2.900   9.429E-02
    3.000   1.014E-01
    3.100   1.088E-01
    3.200   1.166E-01
    3.300   1.247E-01
    3.400   1.332E-01
    3.500   1.422E-01
    3.600   1.515E-01
    3.700   1.613E-01
    3.800   1.715E-01
    3.900   1.822E-01
    4.000   1.934E-01
    4.100   2.051E-01
    4.200   2.173E-01
    4.300   2.300E-01
    4.400   2.434E-01
    4.500   2.573E-01
    4.600   2.719E-01
    4.700   2.871E-01
    4.800   3.030E-01
    4.900   3.197E-01
    5.000   3.371E-01
    5.100   3.553E-01
    5.200   3.743E-01
    5.300   3.942E-01
    5.400   4.151E-01
    5.500   4.369E-01
    5.600   4.597E-01
    5.700   4.836E-01
    5.800   5.087E-01
    5.900   5.349E-01
    6.000   5.625E-01
    6.100   5.913E-01
    6.200   6.216E-01
    6.300   6.534E-01
    6.400   6.868E-01
    6.500   7.219E-01
    6.600   7.587E-01
    6.700   7.975E-01
    6.800   8.383E-01
    6.900   8.812E-01
    7.000   9.263E-01
    7.100   9.738E-01
    7.200   1.024E+00
    7.300   1.077E+00
    7.400   1.132E+00
    7.500   1.191E+00
    7.600   1.252E+00
    7.700   1.317E+00
    7.800   1.386E+00
    7.900   1.458E+00
    8.000   1.533E+00
    8.100   1.613E+00
    8.200   1.697E+00
    8.300   1.785E+00
    8.400   1.877E+00
    8.500   1.975E+00
    8.600   2.077E+00
    8.700   2.184E+00
    8.800   2.297E+00
    8.900   2.417E+00
    9.000   2.542E+00
    9.100   2.674E+00
    9.200   2.814E+00
    9.300   2.962E+00
    9.400   3.119E+00
    9.500   3.285E+00
    9.600   3.461E+00
    9.700   3.649E+00
    9.800   3.848E+00
    9.900   4.060E+00
   10.000   4.286E+00
   10.100   4.527E+00
   10.200   4.784E+00
   10.300   5.058E+00
   10.400   5.351E+00
   10.500   5.665E+00
   10.600   5.999E+00
   10.700   6.357E+00
   10.800   6.739E+00
   10.900   7.147E+00
   11.000   7.583E+00
   11.100   8.047E+00
   11.200   8.542E+00
   11.300   9.068E+00
   11.400   9.626E+00
   11.500   1.022E+01
   11.600   1.084E+01
   11.700   1.149E+01
   11.800   1.217E+01
   11.900   1.288E+01
   12.000   1.360E+01
   12.100   1.435E+01
   12.200   1.510E+01
   12.300   1.586E+01
   12.400   1.661E+01
   12.500   1.735E+01
   12.600   1.806E+01
   12.700   1.873E+01
   12.800   1.936E+01
   12.900   1.993E+01
   13.000   2.043E+01
   13.100   2.086E+01
   13.200   2.120E+01
   13.300   2.146E+01
   13.400   2.163E+01
   13.500   2.171E+01
   13.600   2.169E+01
   13.700   2.160E+01
   13.800   2.142E+01
   13.900   2.116E+01
   14.000   2.084E+01
   14.100   2.046E+01
   14.200   2.002E+01
   14.300   1.955E+01
   14.400   1.904E+01
   14.500   1.851E+01
   14.600   1.795E+01
   14.700   1.739E+01
   14.800   1.682E+01
   14.900   1.624E+01
   15.000   1.567E+01
   15.100   1.511E+01
   15.200   1.456E+01
   15.300   1.402E+01
   15.400   1.349E+01
   15.500   1.298E+01
   15.600   1.249E+01
   15.700   1.202E+01
   15.800   1.156E+01
   15.900   1.113E+01
   16.000   1.071E+01
   16.100   1.031E+01
   16.200   9.931E+00
   16.300   9.568E+00
   16.400   9.222E+00
   16.500   8.892E+00
   16.600   8.576E+00
   16.700   8.275E+00
   16.800   7.988E+00
   16.900   7.712E+00
   17.000   7.449E+00
   17.100   7.197E+00
   17.200   6.955E+00
   17.300   6.722E+00
   17.400   6.499E+00
   17.500   6.284E+00
   17.600   6.077E+00
   17.700   5.877E+00
   17.800   5.685E+00
   17.900   5.500E+00
   18.000   5.321E+00
   18.100   5.148E+00
   18.200   4.982E+00
   18.300   4.821E+00
   18.400   4.666E+00
   18.500   4.516E+00
   18.600   4.372E+00
   18.700   4.232E+00
   18.800   4.098E+00
   18.900   3.969E+00
   19.000   3.845E+00
   19.100   3.726E+00
   19.200   3.612E+00
   19.300   3.502E+00
   19.400   3.397E+00
   19.500   3.296E+00
   19.600   3.200E+00
   19.700   3.107E+00
   19.800   3.019E+00
   19.900   2.934E+00
   20.000   2.853E+00
   20.100   2.775E+00
   20.200   2.700E+00
   20.300   2.629E+00
   20.400   2.560E+00
   20.500   2.495E+00
   20.600   2.432E+00
   20.700   2.371E+00
   20.800   2.313E+00
   20.900   2.258E+00
   21.000   2.204E+00
   21.100   2.152E+00
   21.200   2.103E+00
   21.300   2.055E+00
   21.400   2.009E+00
   21.500   1.965E+00
   21.600   1.922E+00
   21.700   1.881E+00
   21.800   1.841E+00
   21.900   1.803E+00
   22.000   1.766E+00
   22.100   1.730E+00
   22.200   1.695E+00
   22.300   1.661E+00
   22.400   1.629E+00
   22.500   1.598E+00
   22.600   1.567E+00
   22.700   1.538E+00
   22.800   1.509E+00
   22.900   1.481E+00
   23.000   1.454E+00
   23.100   1.428E+00
   23.200   1.403E+00
   23.300   1.378E+00
   23.400   1.355E+00
   23.500   1.331E+00
   23.600   1.309E+00
   23.700   1.287E+00
   23.800   1.265E+00
   23.900   1.245E+00
   24.000   1.224E+00
   24.100   1.205E+00
   24.200   1.186E+00
   24.300   1.167E+00
   24.400   1.149E+00
   24.500   1.131E+00
   24.600   1.114E+00
   24.700   1.097E+00
   24.800   1.080E+00
   24.900   1.064E+00
   25.000   1.049E+00
   25.100   1.033E+00
   25.200   1.019E+00
   25.300   1.004E+00
   25.400   9.897E-01
   25.500   9.758E-01
   25.600   9.622E-01
   25.700   9.489E-01
   25.800   9.359E-01
   25.900   9.232E-01
   26.000   9.108E-01
   26.100   8.987E-01
   26.200   8.868E-01
   26.300   8.752E-01
   26.400   8.638E-01
   26.500   8.526E-01
   26.600   8.417E-01
   26.700   8.310E-01
   26.800   8.206E-01
   26.900   8.103E-01
   27.000   8.003E-01
   27.100   7.904E-01
   27.200   7.808E-01
   27.300   7.713E-01
   27.400   7.620E-01
   27.500   7.529E-01
   27.600   7.440E-01
   27.700   7.353E-01
   27.800   7.267E-01
   27.900   7.183E-01
   28.000   7.100E-01
   28.100   7.019E-01
   28.200   6.939E-01
   28.300   6.861E-01
   28.400   6.784E-01
   28.500   6.709E-01
   28.600   6.635E-01
   28.700   6.562E-01
   28.800   6.491E-01
   28.900   6.421E-01
   29.000   6.352E-01
   29.100   6.284E-01
   29.200   6.218E-01
   29.300   6.152E-01
   29.400   6.088E-01
   29.500   6.024E-01
   29.600   5.962E-01
   29.700   5.901E-01
   29.800   5.841E-01
   29.900   5.782E-01
   30.000   5.724E-01
 
 Z=  49 A= 130  D1M-QRPA-Inter
 E[MeV]  fQRPA[mb/MeV]
    0.100   1.085E-04
    0.200   4.335E-04
    0.300   9.739E-04
    0.400   1.728E-03
    0.500   2.693E-03
    0.600   3.867E-03
    0.700   5.247E-03
    0.800   6.832E-03
    0.900   8.618E-03
    1.000   1.061E-02
    1.100   1.279E-02
    1.200   1.518E-02
    1.300   1.777E-02
    1.400   2.057E-02
    1.500   2.358E-02
    1.600   2.679E-02
    1.700   3.022E-02
    1.800   3.386E-02
    1.900   3.773E-02
    2.000   4.182E-02
    2.100   4.614E-02
    2.200   5.069E-02
    2.300   5.547E-02
    2.400   6.049E-02
    2.500   6.576E-02
    2.600   7.128E-02
    2.700   7.706E-02
    2.800   8.310E-02
    2.900   8.942E-02
    3.000   9.601E-02
    3.100   1.029E-01
    3.200   1.101E-01
    3.300   1.176E-01
    3.400   1.255E-01
    3.500   1.337E-01
    3.600   1.423E-01
    3.700   1.513E-01
    3.800   1.607E-01
    3.900   1.704E-01
    4.000   1.807E-01
    4.100   1.914E-01
    4.200   2.026E-01
    4.300   2.143E-01
    4.400   2.265E-01
    4.500   2.393E-01
    4.600   2.526E-01
    4.700   2.666E-01
    4.800   2.812E-01
    4.900   2.964E-01
    5.000   3.124E-01
    5.100   3.291E-01
    5.200   3.465E-01
    5.300   3.648E-01
    5.400   3.839E-01
    5.500   4.039E-01
    5.600   4.248E-01
    5.700   4.468E-01
    5.800   4.698E-01
    5.900   4.938E-01
    6.000   5.191E-01
    6.100   5.456E-01
    6.200   5.734E-01
    6.300   6.025E-01
    6.400   6.331E-01
    6.500   6.653E-01
    6.600   6.991E-01
    6.700   7.346E-01
    6.800   7.719E-01
    6.900   8.112E-01
    7.000   8.525E-01
    7.100   8.959E-01
    7.200   9.417E-01
    7.300   9.898E-01
    7.400   1.040E+00
    7.500   1.094E+00
    7.600   1.150E+00
    7.700   1.209E+00
    7.800   1.271E+00
    7.900   1.336E+00
    8.000   1.404E+00
    8.100   1.476E+00
    8.200   1.552E+00
    8.300   1.631E+00
    8.400   1.714E+00
    8.500   1.802E+00
    8.600   1.894E+00
    8.700   1.990E+00
    8.800   2.092E+00
    8.900   2.199E+00
    9.000   2.312E+00
    9.100   2.431E+00
    9.200   2.556E+00
    9.300   2.689E+00
    9.400   2.830E+00
    9.500   2.979E+00
    9.600   3.138E+00
    9.700   3.306E+00
    9.800   3.485E+00
    9.900   3.675E+00
   10.000   3.877E+00
   10.100   4.092E+00
   10.200   4.322E+00
   10.300   4.566E+00
   10.400   4.827E+00
   10.500   5.106E+00
   10.600   5.402E+00
   10.700   5.719E+00
   10.800   6.057E+00
   10.900   6.416E+00
   11.000   6.800E+00
   11.100   7.207E+00
   11.200   7.640E+00
   11.300   8.098E+00
   11.400   8.582E+00
   11.500   9.093E+00
   11.600   9.629E+00
   11.700   1.019E+01
   11.800   1.077E+01
   11.900   1.138E+01
   12.000   1.200E+01
   12.100   1.264E+01
   12.200   1.328E+01
   12.300   1.393E+01
   12.400   1.457E+01
   12.500   1.521E+01
   12.600   1.583E+01
   12.700   1.642E+01
   12.800   1.698E+01
   12.900   1.750E+01
   13.000   1.798E+01
   13.100   1.840E+01
   13.200   1.876E+01
   13.300   1.906E+01
   13.400   1.929E+01
   13.500   1.945E+01
   13.600   1.955E+01
   13.700   1.957E+01
   13.800   1.954E+01
   13.900   1.944E+01
   14.000   1.928E+01
   14.100   1.906E+01
   14.200   1.880E+01
   14.300   1.850E+01
   14.400   1.816E+01
   14.500   1.778E+01
   14.600   1.738E+01
   14.700   1.695E+01
   14.800   1.650E+01
   14.900   1.604E+01
   15.000   1.557E+01
   15.100   1.509E+01
   15.200   1.460E+01
   15.300   1.411E+01
   15.400   1.363E+01
   15.500   1.314E+01
   15.600   1.267E+01
   15.700   1.220E+01
   15.800   1.175E+01
   15.900   1.130E+01
   16.000   1.088E+01
   16.100   1.046E+01
   16.200   1.006E+01
   16.300   9.683E+00
   16.400   9.318E+00
   16.500   8.969E+00
   16.600   8.635E+00
   16.700   8.318E+00
   16.800   8.015E+00
   16.900   7.726E+00
   17.000   7.451E+00
   17.100   7.189E+00
   17.200   6.940E+00
   17.300   6.701E+00
   17.400   6.474E+00
   17.500   6.257E+00
   17.600   6.049E+00
   17.700   5.851E+00
   17.800   5.661E+00
   17.900   5.480E+00
   18.000   5.306E+00
   18.100   5.139E+00
   18.200   4.979E+00
   18.300   4.825E+00
   18.400   4.677E+00
   18.500   4.535E+00
   18.600   4.397E+00
   18.700   4.265E+00
   18.800   4.138E+00
   18.900   4.014E+00
   19.000   3.895E+00
   19.100   3.780E+00
   19.200   3.669E+00
   19.300   3.562E+00
   19.400   3.458E+00
   19.500   3.358E+00
   19.600   3.261E+00
   19.700   3.168E+00
   19.800   3.078E+00
   19.900   2.991E+00
   20.000   2.907E+00
   20.100   2.827E+00
   20.200   2.749E+00
   20.300   2.675E+00
   20.400   2.603E+00
   20.500   2.535E+00
   20.600   2.468E+00
   20.700   2.405E+00
   20.800   2.344E+00
   20.900   2.285E+00
   21.000   2.228E+00
   21.100   2.174E+00
   21.200   2.122E+00
   21.300   2.072E+00
   21.400   2.023E+00
   21.500   1.977E+00
   21.600   1.932E+00
   21.700   1.889E+00
   21.800   1.847E+00
   21.900   1.807E+00
   22.000   1.769E+00
   22.100   1.731E+00
   22.200   1.695E+00
   22.300   1.660E+00
   22.400   1.627E+00
   22.500   1.594E+00
   22.600   1.563E+00
   22.700   1.532E+00
   22.800   1.503E+00
   22.900   1.474E+00
   23.000   1.447E+00
   23.100   1.420E+00
   23.200   1.394E+00
   23.300   1.369E+00
   23.400   1.344E+00
   23.500   1.320E+00
   23.600   1.297E+00
   23.700   1.275E+00
   23.800   1.253E+00
   23.900   1.232E+00
   24.000   1.211E+00
   24.100   1.191E+00
   24.200   1.172E+00
   24.300   1.153E+00
   24.400   1.135E+00
   24.500   1.117E+00
   24.600   1.099E+00
   24.700   1.082E+00
   24.800   1.065E+00
   24.900   1.049E+00
   25.000   1.033E+00
   25.100   1.018E+00
   25.200   1.003E+00
   25.300   9.883E-01
   25.400   9.740E-01
   25.500   9.600E-01
   25.600   9.464E-01
   25.700   9.330E-01
   25.800   9.200E-01
   25.900   9.073E-01
   26.000   8.948E-01
   26.100   8.826E-01
   26.200   8.707E-01
   26.300   8.591E-01
   26.400   8.477E-01
   26.500   8.365E-01
   26.600   8.256E-01
   26.700   8.150E-01
   26.800   8.045E-01
   26.900   7.943E-01
   27.000   7.843E-01
   27.100   7.744E-01
   27.200   7.648E-01
   27.300   7.554E-01
   27.400   7.462E-01
   27.500   7.371E-01
   27.600   7.282E-01
   27.700   7.195E-01
   27.800   7.110E-01
   27.900   7.026E-01
   28.000   6.944E-01
   28.100   6.863E-01
   28.200   6.784E-01
   28.300   6.707E-01
   28.400   6.631E-01
   28.500   6.556E-01
   28.600   6.483E-01
   28.700   6.410E-01
   28.800   6.340E-01
   28.900   6.270E-01
   29.000   6.202E-01
   29.100   6.135E-01
   29.200   6.069E-01
   29.300   6.004E-01
   29.400   5.941E-01
   29.500   5.878E-01
   29.600   5.816E-01
   29.700   5.756E-01
   29.800   5.697E-01
   29.900   5.638E-01
   30.000   5.581E-01
 
 Z=  49 A= 131  D1M-QRPA-Inter
 E[MeV]  fQRPA[mb/MeV]
    0.100   1.007E-04
    0.200   4.030E-04
    0.300   9.075E-04
    0.400   1.615E-03
    0.500   2.527E-03
    0.600   3.645E-03
    0.700   4.971E-03
    0.800   6.508E-03
    0.900   8.257E-03
    1.000   1.022E-02
    1.100   1.240E-02
    1.200   1.481E-02
    1.300   1.744E-02
    1.400   2.029E-02
    1.500   2.337E-02
    1.600   2.668E-02
    1.700   3.023E-02
    1.800   3.400E-02
    1.900   3.801E-02
    2.000   4.225E-02
    2.100   4.672E-02
    2.200   5.141E-02
    2.300   5.634E-02
    2.400   6.149E-02
    2.500   6.687E-02
    2.600   7.248E-02
    2.700   7.832E-02
    2.800   8.440E-02
    2.900   9.073E-02
    3.000   9.732E-02
    3.100   1.042E-01
    3.200   1.113E-01
    3.300   1.187E-01
    3.400   1.265E-01
    3.500   1.346E-01
    3.600   1.430E-01
    3.700   1.518E-01
    3.800   1.610E-01
    3.900   1.706E-01
    4.000   1.806E-01
    4.100   1.911E-01
    4.200   2.021E-01
    4.300   2.135E-01
    4.400   2.255E-01
    4.500   2.380E-01
    4.600   2.511E-01
    4.700   2.648E-01
    4.800   2.791E-01
    4.900   2.941E-01
    5.000   3.097E-01
    5.100   3.261E-01
    5.200   3.432E-01
    5.300   3.612E-01
    5.400   3.799E-01
    5.500   3.995E-01
    5.600   4.201E-01
    5.700   4.416E-01
    5.800   4.642E-01
    5.900   4.878E-01
    6.000   5.126E-01
    6.100   5.386E-01
    6.200   5.659E-01
    6.300   5.945E-01
    6.400   6.246E-01
    6.500   6.561E-01
    6.600   6.892E-01
    6.700   7.240E-01
    6.800   7.606E-01
    6.900   7.991E-01
    7.000   8.395E-01
    7.100   8.820E-01
    7.200   9.267E-01
    7.300   9.736E-01
    7.400   1.023E+00
    7.500   1.075E+00
    7.600   1.129E+00
    7.700   1.187E+00
    7.800   1.247E+00
    7.900   1.310E+00
    8.000   1.376E+00
    8.100   1.446E+00
    8.200   1.518E+00
    8.300   1.595E+00
    8.400   1.675E+00
    8.500   1.759E+00
    8.600   1.847E+00
    8.700   1.940E+00
    8.800   2.038E+00
    8.900   2.141E+00
    9.000   2.249E+00
    9.100   2.364E+00
    9.200   2.485E+00
    9.300   2.612E+00
    9.400   2.748E+00
    9.500   2.891E+00
    9.600   3.044E+00
    9.700   3.205E+00
    9.800   3.377E+00
    9.900   3.559E+00
   10.000   3.752E+00
   10.100   3.958E+00
   10.200   4.178E+00
   10.300   4.411E+00
   10.400   4.659E+00
   10.500   4.924E+00
   10.600   5.206E+00
   10.700   5.506E+00
   10.800   5.825E+00
   10.900   6.164E+00
   11.000   6.524E+00
   11.100   6.906E+00
   11.200   7.311E+00
   11.300   7.738E+00
   11.400   8.188E+00
   11.500   8.660E+00
   11.600   9.155E+00
   11.700   9.670E+00
   11.800   1.021E+01
   11.900   1.076E+01
   12.000   1.133E+01
   12.100   1.191E+01
   12.200   1.250E+01
   12.300   1.309E+01
   12.400   1.368E+01
   12.500   1.427E+01
   12.600   1.485E+01
   12.700   1.540E+01
   12.800   1.594E+01
   12.900   1.645E+01
   13.000   1.693E+01
   13.100   1.736E+01
   13.200   1.776E+01
   13.300   1.811E+01
   13.400   1.841E+01
   13.500   1.865E+01
   13.600   1.885E+01
   13.700   1.899E+01
   13.800   1.907E+01
   13.900   1.910E+01
   14.000   1.908E+01
   14.100   1.901E+01
   14.200   1.889E+01
   14.300   1.873E+01
   14.400   1.853E+01
   14.500   1.828E+01
   14.600   1.800E+01
   14.700   1.768E+01
   14.800   1.733E+01
   14.900   1.695E+01
   15.000   1.655E+01
   15.100   1.612E+01
   15.200   1.567E+01
   15.300   1.520E+01
   15.400   1.473E+01
   15.500   1.424E+01
   15.600   1.375E+01
   15.700   1.326E+01
   15.800   1.277E+01
   15.900   1.229E+01
   16.000   1.182E+01
   16.100   1.136E+01
   16.200   1.091E+01
   16.300   1.049E+01
   16.400   1.007E+01
   16.500   9.680E+00
   16.600   9.304E+00
   16.700   8.946E+00
   16.800   8.606E+00
   16.900   8.282E+00
   17.000   7.976E+00
   17.100   7.685E+00
   17.200   7.410E+00
   17.300   7.148E+00
   17.400   6.901E+00
   17.500   6.666E+00
   17.600   6.444E+00
   17.700   6.232E+00
   17.800   6.032E+00
   17.900   5.842E+00
   18.000   5.661E+00
   18.100   5.488E+00
   18.200   5.324E+00
   18.300   5.167E+00
   18.400   5.017E+00
   18.500   4.872E+00
   18.600   4.733E+00
   18.700   4.599E+00
   18.800   4.470E+00
   18.900   4.344E+00
   19.000   4.222E+00
   19.100   4.104E+00
   19.200   3.988E+00
   19.300   3.876E+00
   19.400   3.767E+00
   19.500   3.660E+00
   19.600   3.557E+00
   19.700   3.456E+00
   19.800   3.358E+00
   19.900   3.263E+00
   20.000   3.171E+00
   20.100   3.082E+00
   20.200   2.996E+00
   20.300   2.913E+00
   20.400   2.832E+00
   20.500   2.755E+00
   20.600   2.681E+00
   20.700   2.609E+00
   20.800   2.541E+00
   20.900   2.475E+00
   21.000   2.411E+00
   21.100   2.350E+00
   21.200   2.291E+00
   21.300   2.235E+00
   21.400   2.180E+00
   21.500   2.128E+00
   21.600   2.078E+00
   21.700   2.030E+00
   21.800   1.983E+00
   21.900   1.939E+00
   22.000   1.896E+00
   22.100   1.854E+00
   22.200   1.814E+00
   22.300   1.775E+00
   22.400   1.738E+00
   22.500   1.702E+00
   22.600   1.667E+00
   22.700   1.634E+00
   22.800   1.601E+00
   22.900   1.570E+00
   23.000   1.539E+00
   23.100   1.510E+00
   23.200   1.482E+00
   23.300   1.454E+00
   23.400   1.427E+00
   23.500   1.401E+00
   23.600   1.376E+00
   23.700   1.352E+00
   23.800   1.328E+00
   23.900   1.305E+00
   24.000   1.282E+00
   24.100   1.261E+00
   24.200   1.240E+00
   24.300   1.219E+00
   24.400   1.199E+00
   24.500   1.180E+00
   24.600   1.161E+00
   24.700   1.142E+00
   24.800   1.124E+00
   24.900   1.107E+00
   25.000   1.090E+00
   25.100   1.073E+00
   25.200   1.057E+00
   25.300   1.041E+00
   25.400   1.026E+00
   25.500   1.011E+00
   25.600   9.960E-01
   25.700   9.816E-01
   25.800   9.676E-01
   25.900   9.540E-01
   26.000   9.406E-01
   26.100   9.276E-01
   26.200   9.148E-01
   26.300   9.024E-01
   26.400   8.902E-01
   26.500   8.782E-01
   26.600   8.666E-01
   26.700   8.552E-01
   26.800   8.440E-01
   26.900   8.331E-01
   27.000   8.224E-01
   27.100   8.119E-01
   27.200   8.017E-01
   27.300   7.916E-01
   27.400   7.818E-01
   27.500   7.721E-01
   27.600   7.627E-01
   27.700   7.534E-01
   27.800   7.443E-01
   27.900   7.354E-01
   28.000   7.267E-01
   28.100   7.181E-01
   28.200   7.098E-01
   28.300   7.015E-01
   28.400   6.934E-01
   28.500   6.855E-01
   28.600   6.777E-01
   28.700   6.701E-01
   28.800   6.626E-01
   28.900   6.552E-01
   29.000   6.480E-01
   29.100   6.409E-01
   29.200   6.339E-01
   29.300   6.270E-01
   29.400   6.203E-01
   29.500   6.137E-01
   29.600   6.072E-01
   29.700   6.008E-01
   29.800   5.945E-01
   29.900   5.883E-01
   30.000   5.822E-01
 
 Z=  49 A= 132  D1M-QRPA-Inter
 E[MeV]  fQRPA[mb/MeV]
    0.100   1.152E-04
    0.200   4.612E-04
    0.300   1.038E-03
    0.400   1.848E-03
    0.500   2.892E-03
    0.600   4.172E-03
    0.700   5.690E-03
    0.800   7.449E-03
    0.900   9.452E-03
    1.000   1.170E-02
    1.100   1.420E-02
    1.200   1.696E-02
    1.300   1.998E-02
    1.400   2.326E-02
    1.500   2.680E-02
    1.600   3.062E-02
    1.700   3.470E-02
    1.800   3.907E-02
    1.900   4.371E-02
    2.000   4.864E-02
    2.100   5.385E-02
    2.200   5.934E-02
    2.300   6.512E-02
    2.400   7.119E-02
    2.500   7.755E-02
    2.600   8.420E-02
    2.700   9.114E-02
    2.800   9.839E-02
    2.900   1.060E-01
    3.000   1.138E-01
    3.100   1.220E-01
    3.200   1.306E-01
    3.300   1.395E-01
    3.400   1.488E-01
    3.500   1.585E-01
    3.600   1.686E-01
    3.700   1.791E-01
    3.800   1.901E-01
    3.900   2.016E-01
    4.000   2.136E-01
    4.100   2.262E-01
    4.200   2.393E-01
    4.300   2.531E-01
    4.400   2.675E-01
    4.500   2.826E-01
    4.600   2.984E-01
    4.700   3.149E-01
    4.800   3.323E-01
    4.900   3.505E-01
    5.000   3.695E-01
    5.100   3.895E-01
    5.200   4.105E-01
    5.300   4.325E-01
    5.400   4.555E-01
    5.500   4.797E-01
    5.600   5.050E-01
    5.700   5.316E-01
    5.800   5.595E-01
    5.900   5.886E-01
    6.000   6.192E-01
    6.100   6.512E-01
    6.200   6.846E-01
    6.300   7.196E-01
    6.400   7.562E-01
    6.500   7.943E-01
    6.600   8.341E-01
    6.700   8.756E-01
    6.800   9.187E-01
    6.900   9.636E-01
    7.000   1.010E+00
    7.100   1.059E+00
    7.200   1.109E+00
    7.300   1.161E+00
    7.400   1.216E+00
    7.500   1.272E+00
    7.600   1.330E+00
    7.700   1.391E+00
    7.800   1.454E+00
    7.900   1.520E+00
    8.000   1.588E+00
    8.100   1.660E+00
    8.200   1.734E+00
    8.300   1.812E+00
    8.400   1.893E+00
    8.500   1.979E+00
    8.600   2.068E+00
    8.700   2.162E+00
    8.800   2.261E+00
    8.900   2.365E+00
    9.000   2.474E+00
    9.100   2.590E+00
    9.200   2.712E+00
    9.300   2.841E+00
    9.400   2.977E+00
    9.500   3.121E+00
    9.600   3.274E+00
    9.700   3.435E+00
    9.800   3.606E+00
    9.900   3.787E+00
   10.000   3.978E+00
   10.100   4.181E+00
   10.200   4.396E+00
   10.300   4.624E+00
   10.400   4.865E+00
   10.500   5.120E+00
   10.600   5.390E+00
   10.700   5.676E+00
   10.800   5.979E+00
   10.900   6.299E+00
   11.000   6.636E+00
   11.100   6.992E+00
   11.200   7.367E+00
   11.300   7.762E+00
   11.400   8.176E+00
   11.500   8.610E+00
   11.600   9.064E+00
   11.700   9.536E+00
   11.800   1.003E+01
   11.900   1.053E+01
   12.000   1.106E+01
   12.100   1.159E+01
   12.200   1.213E+01
   12.300   1.268E+01
   12.400   1.324E+01
   12.500   1.379E+01
   12.600   1.433E+01
   12.700   1.486E+01
   12.800   1.537E+01
   12.900   1.586E+01
   13.000   1.631E+01
   13.100   1.673E+01
   13.200   1.712E+01
   13.300   1.745E+01
   13.400   1.774E+01
   13.500   1.797E+01
   13.600   1.815E+01
   13.700   1.827E+01
   13.800   1.833E+01
   13.900   1.834E+01
   14.000   1.830E+01
   14.100   1.820E+01
   14.200   1.805E+01
   14.300   1.786E+01
   14.400   1.763E+01
   14.500   1.736E+01
   14.600   1.705E+01
   14.700   1.671E+01
   14.800   1.635E+01
   14.900   1.597E+01
   15.000   1.557E+01
   15.100   1.515E+01
   15.200   1.472E+01
   15.300   1.429E+01
   15.400   1.385E+01
   15.500   1.341E+01
   15.600   1.298E+01
   15.700   1.254E+01
   15.800   1.212E+01
   15.900   1.170E+01
   16.000   1.129E+01
   16.100   1.090E+01
   16.200   1.051E+01
   16.300   1.014E+01
   16.400   9.788E+00
   16.500   9.446E+00
   16.600   9.117E+00
   16.700   8.801E+00
   16.800   8.498E+00
   16.900   8.208E+00
   17.000   7.930E+00
   17.100   7.664E+00
   17.200   7.409E+00
   17.300   7.164E+00
   17.400   6.930E+00
   17.500   6.706E+00
   17.600   6.490E+00
   17.700   6.284E+00
   17.800   6.086E+00
   17.900   5.897E+00
   18.000   5.715E+00
   18.100   5.540E+00
   18.200   5.372E+00
   18.300   5.211E+00
   18.400   5.055E+00
   18.500   4.906E+00
   18.600   4.761E+00
   18.700   4.622E+00
   18.800   4.487E+00
   18.900   4.357E+00
   19.000   4.232E+00
   19.100   4.110E+00
   19.200   3.992E+00
   19.300   3.878E+00
   19.400   3.767E+00
   19.500   3.660E+00
   19.600   3.557E+00
   19.700   3.457E+00
   19.800   3.361E+00
   19.900   3.267E+00
   20.000   3.177E+00
   20.100   3.091E+00
   20.200   3.007E+00
   20.300   2.926E+00
   20.400   2.849E+00
   20.500   2.774E+00
   20.600   2.702E+00
   20.700   2.633E+00
   20.800   2.567E+00
   20.900   2.503E+00
   21.000   2.441E+00
   21.100   2.382E+00
   21.200   2.325E+00
   21.300   2.270E+00
   21.400   2.217E+00
   21.500   2.166E+00
   21.600   2.117E+00
   21.700   2.070E+00
   21.800   2.025E+00
   21.900   1.981E+00
   22.000   1.938E+00
   22.100   1.897E+00
   22.200   1.858E+00
   22.300   1.820E+00
   22.400   1.783E+00
   22.500   1.747E+00
   22.600   1.713E+00
   22.700   1.679E+00
   22.800   1.647E+00
   22.900   1.616E+00
   23.000   1.585E+00
   23.100   1.556E+00
   23.200   1.527E+00
   23.300   1.500E+00
   23.400   1.473E+00
   23.500   1.447E+00
   23.600   1.421E+00
   23.700   1.397E+00
   23.800   1.373E+00
   23.900   1.350E+00
   24.000   1.327E+00
   24.100   1.305E+00
   24.200   1.284E+00
   24.300   1.263E+00
   24.400   1.243E+00
   24.500   1.223E+00
   24.600   1.204E+00
   24.700   1.185E+00
   24.800   1.167E+00
   24.900   1.149E+00
   25.000   1.131E+00
   25.100   1.115E+00
   25.200   1.098E+00
   25.300   1.082E+00
   25.400   1.066E+00
   25.500   1.051E+00
   25.600   1.036E+00
   25.700   1.021E+00
   25.800   1.007E+00
   25.900   9.929E-01
   26.000   9.792E-01
   26.100   9.659E-01
   26.200   9.528E-01
   26.300   9.400E-01
   26.400   9.275E-01
   26.500   9.153E-01
   26.600   9.033E-01
   26.700   8.916E-01
   26.800   8.801E-01
   26.900   8.689E-01
   27.000   8.579E-01
   27.100   8.471E-01
   27.200   8.366E-01
   27.300   8.262E-01
   27.400   8.161E-01
   27.500   8.062E-01
   27.600   7.964E-01
   27.700   7.869E-01
   27.800   7.775E-01
   27.900   7.683E-01
   28.000   7.593E-01
   28.100   7.505E-01
   28.200   7.418E-01
   28.300   7.333E-01
   28.400   7.250E-01
   28.500   7.168E-01
   28.600   7.087E-01
   28.700   7.008E-01
   28.800   6.931E-01
   28.900   6.855E-01
   29.000   6.780E-01
   29.100   6.706E-01
   29.200   6.634E-01
   29.300   6.563E-01
   29.400   6.493E-01
   29.500   6.425E-01
   29.600   6.357E-01
   29.700   6.291E-01
   29.800   6.226E-01
   29.900   6.162E-01
   30.000   6.099E-01
 
 Z=  49 A= 133  D1M-QRPA-Inter
 E[MeV]  fQRPA[mb/MeV]
    0.100   1.410E-04
    0.200   5.642E-04
    0.300   1.270E-03
    0.400   2.261E-03
    0.500   3.538E-03
    0.600   5.104E-03
    0.700   6.962E-03
    0.800   9.116E-03
    0.900   1.157E-02
    1.000   1.433E-02
    1.100   1.739E-02
    1.200   2.077E-02
    1.300   2.447E-02
    1.400   2.850E-02
    1.500   3.286E-02
    1.600   3.756E-02
    1.700   4.260E-02
    1.800   4.800E-02
    1.900   5.375E-02
    2.000   5.987E-02
    2.100   6.636E-02
    2.200   7.323E-02
    2.300   8.048E-02
    2.400   8.812E-02
    2.500   9.615E-02
    2.600   1.046E-01
    2.700   1.134E-01
    2.800   1.226E-01
    2.900   1.323E-01
    3.000   1.424E-01
    3.100   1.529E-01
    3.200   1.638E-01
    3.300   1.752E-01
    3.400   1.871E-01
    3.500   1.995E-01
    3.600   2.125E-01
    3.700   2.260E-01
    3.800   2.400E-01
    3.900   2.547E-01
    4.000   2.701E-01
    4.100   2.862E-01
    4.200   3.031E-01
    4.300   3.207E-01
    4.400   3.392E-01
    4.500   3.586E-01
    4.600   3.790E-01
    4.700   4.004E-01
    4.800   4.229E-01
    4.900   4.465E-01
    5.000   4.713E-01
    5.100   4.974E-01
    5.200   5.249E-01
    5.300   5.537E-01
    5.400   5.840E-01
    5.500   6.158E-01
    5.600   6.491E-01
    5.700   6.842E-01
    5.800   7.209E-01
    5.900   7.594E-01
    6.000   7.996E-01
    6.100   8.417E-01
    6.200   8.856E-01
    6.300   9.313E-01
    6.400   9.788E-01
    6.500   1.028E+00
    6.600   1.079E+00
    6.700   1.132E+00
    6.800   1.186E+00
    6.900   1.242E+00
    7.000   1.300E+00
    7.100   1.359E+00
    7.200   1.419E+00
    7.300   1.481E+00
    7.400   1.545E+00
    7.500   1.609E+00
    7.600   1.676E+00
    7.700   1.744E+00
    7.800   1.814E+00
    7.900   1.886E+00
    8.000   1.960E+00
    8.100   2.038E+00
    8.200   2.118E+00
    8.300   2.201E+00
    8.400   2.289E+00
    8.500   2.380E+00
    8.600   2.476E+00
    8.700   2.576E+00
    8.800   2.682E+00
    8.900   2.793E+00
    9.000   2.911E+00
    9.100   3.034E+00
    9.200   3.165E+00
    9.300   3.303E+00
    9.400   3.448E+00
    9.500   3.602E+00
    9.600   3.764E+00
    9.700   3.936E+00
    9.800   4.117E+00
    9.900   4.308E+00
   10.000   4.509E+00
   10.100   4.722E+00
   10.200   4.946E+00
   10.300   5.182E+00
   10.400   5.431E+00
   10.500   5.693E+00
   10.600   5.968E+00
   10.700   6.257E+00
   10.800   6.562E+00
   10.900   6.881E+00
   11.000   7.217E+00
   11.100   7.569E+00
   11.200   7.938E+00
   11.300   8.325E+00
   11.400   8.730E+00
   11.500   9.153E+00
   11.600   9.595E+00
   11.700   1.005E+01
   11.800   1.053E+01
   11.900   1.103E+01
   12.000   1.154E+01
   12.100   1.206E+01
   12.200   1.260E+01
   12.300   1.314E+01
   12.400   1.369E+01
   12.500   1.424E+01
   12.600   1.479E+01
   12.700   1.532E+01
   12.800   1.584E+01
   12.900   1.634E+01
   13.000   1.681E+01
   13.100   1.724E+01
   13.200   1.764E+01
   13.300   1.798E+01
   13.400   1.827E+01
   13.500   1.851E+01
   13.600   1.868E+01
   13.700   1.880E+01
   13.800   1.885E+01
   13.900   1.883E+01
   14.000   1.876E+01
   14.100   1.863E+01
   14.200   1.845E+01
   14.300   1.821E+01
   14.400   1.793E+01
   14.500   1.762E+01
   14.600   1.727E+01
   14.700   1.689E+01
   14.800   1.650E+01
   14.900   1.608E+01
   15.000   1.566E+01
   15.100   1.523E+01
   15.200   1.479E+01
   15.300   1.436E+01
   15.400   1.393E+01
   15.500   1.351E+01
   15.600   1.309E+01
   15.700   1.269E+01
   15.800   1.229E+01
   15.900   1.191E+01
   16.000   1.154E+01
   16.100   1.118E+01
   16.200   1.083E+01
   16.300   1.049E+01
   16.400   1.017E+01
   16.500   9.854E+00
   16.600   9.551E+00
   16.700   9.257E+00
   16.800   8.973E+00
   16.900   8.697E+00
   17.000   8.430E+00
   17.100   8.172E+00
   17.200   7.921E+00
   17.300   7.677E+00
   17.400   7.441E+00
   17.500   7.212E+00
   17.600   6.990E+00
   17.700   6.775E+00
   17.800   6.566E+00
   17.900   6.364E+00
   18.000   6.168E+00
   18.100   5.979E+00
   18.200   5.795E+00
   18.300   5.618E+00
   18.400   5.447E+00
   18.500   5.281E+00
   18.600   5.121E+00
   18.700   4.966E+00
   18.800   4.817E+00
   18.900   4.673E+00
   19.000   4.534E+00
   19.100   4.401E+00
   19.200   4.272E+00
   19.300   4.148E+00
   19.400   4.029E+00
   19.500   3.914E+00
   19.600   3.804E+00
   19.700   3.698E+00
   19.800   3.596E+00
   19.900   3.498E+00
   20.000   3.404E+00
   20.100   3.314E+00
   20.200   3.227E+00
   20.300   3.144E+00
   20.400   3.063E+00
   20.500   2.986E+00
   20.600   2.912E+00
   20.700   2.841E+00
   20.800   2.772E+00
   20.900   2.706E+00
   21.000   2.643E+00
   21.100   2.581E+00
   21.200   2.522E+00
   21.300   2.466E+00
   21.400   2.411E+00
   21.500   2.358E+00
   21.600   2.307E+00
   21.700   2.257E+00
   21.800   2.210E+00
   21.900   2.164E+00
   22.000   2.119E+00
   22.100   2.076E+00
   22.200   2.034E+00
   22.300   1.994E+00
   22.400   1.955E+00
   22.500   1.917E+00
   22.600   1.881E+00
   22.700   1.845E+00
   22.800   1.811E+00
   22.900   1.778E+00
   23.000   1.745E+00
   23.100   1.714E+00
   23.200   1.683E+00
   23.300   1.654E+00
   23.400   1.625E+00
   23.500   1.597E+00
   23.600   1.570E+00
   23.700   1.543E+00
   23.800   1.517E+00
   23.900   1.492E+00
   24.000   1.468E+00
   24.100   1.444E+00
   24.200   1.421E+00
   24.300   1.399E+00
   24.400   1.377E+00
   24.500   1.355E+00
   24.600   1.334E+00
   24.700   1.314E+00
   24.800   1.294E+00
   24.900   1.275E+00
   25.000   1.256E+00
   25.100   1.238E+00
   25.200   1.220E+00
   25.300   1.202E+00
   25.400   1.185E+00
   25.500   1.168E+00
   25.600   1.152E+00
   25.700   1.136E+00
   25.800   1.120E+00
   25.900   1.105E+00
   26.000   1.090E+00
   26.100   1.075E+00
   26.200   1.061E+00
   26.300   1.047E+00
   26.400   1.033E+00
   26.500   1.020E+00
   26.600   1.007E+00
   26.700   9.939E-01
   26.800   9.813E-01
   26.900   9.689E-01
   27.000   9.569E-01
   27.100   9.450E-01
   27.200   9.334E-01
   27.300   9.220E-01
   27.400   9.109E-01
   27.500   8.999E-01
   27.600   8.892E-01
   27.700   8.787E-01
   27.800   8.684E-01
   27.900   8.582E-01
   28.000   8.483E-01
   28.100   8.386E-01
   28.200   8.290E-01
   28.300   8.196E-01
   28.400   8.104E-01
   28.500   8.013E-01
   28.600   7.924E-01
   28.700   7.837E-01
   28.800   7.751E-01
   28.900   7.667E-01
   29.000   7.584E-01
   29.100   7.503E-01
   29.200   7.423E-01
   29.300   7.344E-01
   29.400   7.267E-01
   29.500   7.191E-01
   29.600   7.117E-01
   29.700   7.043E-01
   29.800   6.971E-01
   29.900   6.900E-01
   30.000   6.830E-01
 
