 Z=  51 A= 123  D1M-QRPA-Inter
 E[MeV]  fQRPA[mb/MeV]
    0.100   9.635E-05
    0.200   3.855E-04
    0.300   8.679E-04
    0.400   1.544E-03
    0.500   2.415E-03
    0.600   3.482E-03
    0.700   4.745E-03
    0.800   6.208E-03
    0.900   7.871E-03
    1.000   9.737E-03
    1.100   1.181E-02
    1.200   1.409E-02
    1.300   1.658E-02
    1.400   1.928E-02
    1.500   2.220E-02
    1.600   2.533E-02
    1.700   2.869E-02
    1.800   3.228E-02
    1.900   3.610E-02
    2.000   4.015E-02
    2.100   4.445E-02
    2.200   4.899E-02
    2.300   5.377E-02
    2.400   5.881E-02
    2.500   6.412E-02
    2.600   6.969E-02
    2.700   7.554E-02
    2.800   8.166E-02
    2.900   8.808E-02
    3.000   9.480E-02
    3.100   1.018E-01
    3.200   1.092E-01
    3.300   1.169E-01
    3.400   1.249E-01
    3.500   1.333E-01
    3.600   1.420E-01
    3.700   1.512E-01
    3.800   1.607E-01
    3.900   1.707E-01
    4.000   1.811E-01
    4.100   1.920E-01
    4.200   2.033E-01
    4.300   2.151E-01
    4.400   2.274E-01
    4.500   2.403E-01
    4.600   2.538E-01
    4.700   2.678E-01
    4.800   2.824E-01
    4.900   2.977E-01
    5.000   3.137E-01
    5.100   3.303E-01
    5.200   3.477E-01
    5.300   3.659E-01
    5.400   3.849E-01
    5.500   4.047E-01
    5.600   4.255E-01
    5.700   4.471E-01
    5.800   4.698E-01
    5.900   4.935E-01
    6.000   5.182E-01
    6.100   5.442E-01
    6.200   5.713E-01
    6.300   5.996E-01
    6.400   6.293E-01
    6.500   6.603E-01
    6.600   6.927E-01
    6.700   7.266E-01
    6.800   7.621E-01
    6.900   7.992E-01
    7.000   8.379E-01
    7.100   8.784E-01
    7.200   9.206E-01
    7.300   9.647E-01
    7.400   1.011E+00
    7.500   1.059E+00
    7.600   1.108E+00
    7.700   1.160E+00
    7.800   1.214E+00
    7.900   1.270E+00
    8.000   1.329E+00
    8.100   1.389E+00
    8.200   1.452E+00
    8.300   1.517E+00
    8.400   1.585E+00
    8.500   1.656E+00
    8.600   1.729E+00
    8.700   1.806E+00
    8.800   1.886E+00
    8.900   1.969E+00
    9.000   2.056E+00
    9.100   2.147E+00
    9.200   2.242E+00
    9.300   2.341E+00
    9.400   2.445E+00
    9.500   2.555E+00
    9.600   2.670E+00
    9.700   2.791E+00
    9.800   2.918E+00
    9.900   3.052E+00
   10.000   3.193E+00
   10.100   3.341E+00
   10.200   3.498E+00
   10.300   3.663E+00
   10.400   3.837E+00
   10.500   4.020E+00
   10.600   4.213E+00
   10.700   4.417E+00
   10.800   4.632E+00
   10.900   4.858E+00
   11.000   5.096E+00
   11.100   5.347E+00
   11.200   5.612E+00
   11.300   5.890E+00
   11.400   6.184E+00
   11.500   6.493E+00
   11.600   6.818E+00
   11.700   7.160E+00
   11.800   7.520E+00
   11.900   7.899E+00
   12.000   8.297E+00
   12.100   8.714E+00
   12.200   9.151E+00
   12.300   9.607E+00
   12.400   1.008E+01
   12.500   1.058E+01
   12.600   1.109E+01
   12.700   1.162E+01
   12.800   1.216E+01
   12.900   1.271E+01
   13.000   1.327E+01
   13.100   1.383E+01
   13.200   1.439E+01
   13.300   1.494E+01
   13.400   1.547E+01
   13.500   1.598E+01
   13.600   1.647E+01
   13.700   1.692E+01
   13.800   1.733E+01
   13.900   1.770E+01
   14.000   1.801E+01
   14.100   1.828E+01
   14.200   1.849E+01
   14.300   1.864E+01
   14.400   1.874E+01
   14.500   1.878E+01
   14.600   1.878E+01
   14.700   1.872E+01
   14.800   1.862E+01
   14.900   1.848E+01
   15.000   1.829E+01
   15.100   1.807E+01
   15.200   1.782E+01
   15.300   1.754E+01
   15.400   1.723E+01
   15.500   1.691E+01
   15.600   1.656E+01
   15.700   1.619E+01
   15.800   1.581E+01
   15.900   1.542E+01
   16.000   1.501E+01
   16.100   1.460E+01
   16.200   1.419E+01
   16.300   1.377E+01
   16.400   1.336E+01
   16.500   1.294E+01
   16.600   1.253E+01
   16.700   1.213E+01
   16.800   1.173E+01
   16.900   1.134E+01
   17.000   1.097E+01
   17.100   1.060E+01
   17.200   1.024E+01
   17.300   9.900E+00
   17.400   9.568E+00
   17.500   9.249E+00
   17.600   8.942E+00
   17.700   8.646E+00
   17.800   8.363E+00
   17.900   8.091E+00
   18.000   7.829E+00
   18.100   7.578E+00
   18.200   7.337E+00
   18.300   7.105E+00
   18.400   6.881E+00
   18.500   6.666E+00
   18.600   6.458E+00
   18.700   6.258E+00
   18.800   6.065E+00
   18.900   5.878E+00
   19.000   5.698E+00
   19.100   5.524E+00
   19.200   5.356E+00
   19.300   5.194E+00
   19.400   5.038E+00
   19.500   4.887E+00
   19.600   4.741E+00
   19.700   4.601E+00
   19.800   4.466E+00
   19.900   4.336E+00
   20.000   4.211E+00
   20.100   4.091E+00
   20.200   3.976E+00
   20.300   3.865E+00
   20.400   3.758E+00
   20.500   3.656E+00
   20.600   3.557E+00
   20.700   3.463E+00
   20.800   3.372E+00
   20.900   3.284E+00
   21.000   3.200E+00
   21.100   3.119E+00
   21.200   3.042E+00
   21.300   2.967E+00
   21.400   2.895E+00
   21.500   2.825E+00
   21.600   2.758E+00
   21.700   2.694E+00
   21.800   2.631E+00
   21.900   2.571E+00
   22.000   2.513E+00
   22.100   2.457E+00
   22.200   2.403E+00
   22.300   2.350E+00
   22.400   2.299E+00
   22.500   2.250E+00
   22.600   2.203E+00
   22.700   2.157E+00
   22.800   2.112E+00
   22.900   2.069E+00
   23.000   2.028E+00
   23.100   1.987E+00
   23.200   1.948E+00
   23.300   1.911E+00
   23.400   1.874E+00
   23.500   1.838E+00
   23.600   1.804E+00
   23.700   1.771E+00
   23.800   1.738E+00
   23.900   1.707E+00
   24.000   1.676E+00
   24.100   1.647E+00
   24.200   1.618E+00
   24.300   1.590E+00
   24.400   1.563E+00
   24.500   1.537E+00
   24.600   1.511E+00
   24.700   1.486E+00
   24.800   1.462E+00
   24.900   1.439E+00
   25.000   1.416E+00
   25.100   1.394E+00
   25.200   1.372E+00
   25.300   1.351E+00
   25.400   1.331E+00
   25.500   1.311E+00
   25.600   1.291E+00
   25.700   1.272E+00
   25.800   1.254E+00
   25.900   1.236E+00
   26.000   1.218E+00
   26.100   1.201E+00
   26.200   1.185E+00
   26.300   1.168E+00
   26.400   1.152E+00
   26.500   1.137E+00
   26.600   1.121E+00
   26.700   1.106E+00
   26.800   1.092E+00
   26.900   1.077E+00
   27.000   1.063E+00
   27.100   1.049E+00
   27.200   1.036E+00
   27.300   1.022E+00
   27.400   1.009E+00
   27.500   9.962E-01
   27.600   9.835E-01
   27.700   9.710E-01
   27.800   9.587E-01
   27.900   9.466E-01
   28.000   9.347E-01
   28.100   9.231E-01
   28.200   9.117E-01
   28.300   9.004E-01
   28.400   8.894E-01
   28.500   8.786E-01
   28.600   8.680E-01
   28.700   8.576E-01
   28.800   8.474E-01
   28.900   8.374E-01
   29.000   8.276E-01
   29.100   8.180E-01
   29.200   8.085E-01
   29.300   7.993E-01
   29.400   7.902E-01
   29.500   7.812E-01
   29.600   7.725E-01
   29.700   7.639E-01
   29.800   7.555E-01
   29.900   7.472E-01
   30.000   7.391E-01
 
 Z=  51 A= 124  D1M-QRPA-Inter
 E[MeV]  fQRPA[mb/MeV]
    0.100   1.026E-04
    0.200   4.106E-04
    0.300   9.244E-04
    0.400   1.645E-03
    0.500   2.572E-03
    0.600   3.709E-03
    0.700   5.055E-03
    0.800   6.613E-03
    0.900   8.385E-03
    1.000   1.037E-02
    1.100   1.258E-02
    1.200   1.501E-02
    1.300   1.766E-02
    1.400   2.054E-02
    1.500   2.366E-02
    1.600   2.701E-02
    1.700   3.059E-02
    1.800   3.443E-02
    1.900   3.851E-02
    2.000   4.284E-02
    2.100   4.744E-02
    2.200   5.230E-02
    2.300   5.744E-02
    2.400   6.285E-02
    2.500   6.855E-02
    2.600   7.454E-02
    2.700   8.083E-02
    2.800   8.744E-02
    2.900   9.437E-02
    3.000   1.016E-01
    3.100   1.092E-01
    3.200   1.172E-01
    3.300   1.255E-01
    3.400   1.342E-01
    3.500   1.433E-01
    3.600   1.529E-01
    3.700   1.628E-01
    3.800   1.732E-01
    3.900   1.841E-01
    4.000   1.954E-01
    4.100   2.072E-01
    4.200   2.196E-01
    4.300   2.325E-01
    4.400   2.460E-01
    4.500   2.601E-01
    4.600   2.748E-01
    4.700   2.902E-01
    4.800   3.062E-01
    4.900   3.230E-01
    5.000   3.405E-01
    5.100   3.588E-01
    5.200   3.779E-01
    5.300   3.979E-01
    5.400   4.188E-01
    5.500   4.406E-01
    5.600   4.635E-01
    5.700   4.874E-01
    5.800   5.123E-01
    5.900   5.385E-01
    6.000   5.658E-01
    6.100   5.944E-01
    6.200   6.243E-01
    6.300   6.556E-01
    6.400   6.883E-01
    6.500   7.226E-01
    6.600   7.585E-01
    6.700   7.960E-01
    6.800   8.352E-01
    6.900   8.762E-01
    7.000   9.191E-01
    7.100   9.639E-01
    7.200   1.011E+00
    7.300   1.060E+00
    7.400   1.111E+00
    7.500   1.164E+00
    7.600   1.219E+00
    7.700   1.277E+00
    7.800   1.338E+00
    7.900   1.400E+00
    8.000   1.466E+00
    8.100   1.534E+00
    8.200   1.605E+00
    8.300   1.679E+00
    8.400   1.755E+00
    8.500   1.836E+00
    8.600   1.919E+00
    8.700   2.006E+00
    8.800   2.097E+00
    8.900   2.192E+00
    9.000   2.292E+00
    9.100   2.396E+00
    9.200   2.505E+00
    9.300   2.619E+00
    9.400   2.739E+00
    9.500   2.864E+00
    9.600   2.996E+00
    9.700   3.135E+00
    9.800   3.280E+00
    9.900   3.433E+00
   10.000   3.593E+00
   10.100   3.762E+00
   10.200   3.939E+00
   10.300   4.124E+00
   10.400   4.319E+00
   10.500   4.522E+00
   10.600   4.736E+00
   10.700   4.959E+00
   10.800   5.192E+00
   10.900   5.435E+00
   11.000   5.688E+00
   11.100   5.952E+00
   11.200   6.226E+00
   11.300   6.510E+00
   11.400   6.805E+00
   11.500   7.110E+00
   11.600   7.426E+00
   11.700   7.751E+00
   11.800   8.086E+00
   11.900   8.431E+00
   12.000   8.784E+00
   12.100   9.146E+00
   12.200   9.516E+00
   12.300   9.893E+00
   12.400   1.028E+01
   12.500   1.066E+01
   12.600   1.106E+01
   12.700   1.145E+01
   12.800   1.184E+01
   12.900   1.223E+01
   13.000   1.262E+01
   13.100   1.299E+01
   13.200   1.336E+01
   13.300   1.371E+01
   13.400   1.404E+01
   13.500   1.435E+01
   13.600   1.463E+01
   13.700   1.488E+01
   13.800   1.510E+01
   13.900   1.529E+01
   14.000   1.544E+01
   14.100   1.554E+01
   14.200   1.562E+01
   14.300   1.565E+01
   14.400   1.564E+01
   14.500   1.560E+01
   14.600   1.552E+01
   14.700   1.541E+01
   14.800   1.527E+01
   14.900   1.510E+01
   15.000   1.490E+01
   15.100   1.469E+01
   15.200   1.445E+01
   15.300   1.419E+01
   15.400   1.392E+01
   15.500   1.363E+01
   15.600   1.333E+01
   15.700   1.302E+01
   15.800   1.271E+01
   15.900   1.239E+01
   16.000   1.206E+01
   16.100   1.173E+01
   16.200   1.141E+01
   16.300   1.108E+01
   16.400   1.075E+01
   16.500   1.043E+01
   16.600   1.011E+01
   16.700   9.802E+00
   16.800   9.497E+00
   16.900   9.198E+00
   17.000   8.907E+00
   17.100   8.624E+00
   17.200   8.349E+00
   17.300   8.083E+00
   17.400   7.826E+00
   17.500   7.577E+00
   17.600   7.337E+00
   17.700   7.105E+00
   17.800   6.882E+00
   17.900   6.666E+00
   18.000   6.458E+00
   18.100   6.258E+00
   18.200   6.065E+00
   18.300   5.879E+00
   18.400   5.700E+00
   18.500   5.527E+00
   18.600   5.360E+00
   18.700   5.199E+00
   18.800   5.044E+00
   18.900   4.894E+00
   19.000   4.749E+00
   19.100   4.610E+00
   19.200   4.475E+00
   19.300   4.345E+00
   19.400   4.220E+00
   19.500   4.100E+00
   19.600   3.984E+00
   19.700   3.872E+00
   19.800   3.764E+00
   19.900   3.661E+00
   20.000   3.561E+00
   20.100   3.465E+00
   20.200   3.373E+00
   20.300   3.284E+00
   20.400   3.199E+00
   20.500   3.117E+00
   20.600   3.038E+00
   20.700   2.962E+00
   20.800   2.888E+00
   20.900   2.818E+00
   21.000   2.750E+00
   21.100   2.685E+00
   21.200   2.621E+00
   21.300   2.561E+00
   21.400   2.502E+00
   21.500   2.446E+00
   21.600   2.391E+00
   21.700   2.338E+00
   21.800   2.287E+00
   21.900   2.238E+00
   22.000   2.190E+00
   22.100   2.144E+00
   22.200   2.100E+00
   22.300   2.057E+00
   22.400   2.015E+00
   22.500   1.974E+00
   22.600   1.935E+00
   22.700   1.897E+00
   22.800   1.860E+00
   22.900   1.825E+00
   23.000   1.790E+00
   23.100   1.756E+00
   23.200   1.724E+00
   23.300   1.692E+00
   23.400   1.662E+00
   23.500   1.632E+00
   23.600   1.603E+00
   23.700   1.575E+00
   23.800   1.548E+00
   23.900   1.521E+00
   24.000   1.495E+00
   24.100   1.470E+00
   24.200   1.446E+00
   24.300   1.422E+00
   24.400   1.399E+00
   24.500   1.377E+00
   24.600   1.355E+00
   24.700   1.334E+00
   24.800   1.313E+00
   24.900   1.293E+00
   25.000   1.273E+00
   25.100   1.254E+00
   25.200   1.235E+00
   25.300   1.217E+00
   25.400   1.199E+00
   25.500   1.182E+00
   25.600   1.165E+00
   25.700   1.148E+00
   25.800   1.132E+00
   25.900   1.116E+00
   26.000   1.101E+00
   26.100   1.086E+00
   26.200   1.071E+00
   26.300   1.057E+00
   26.400   1.043E+00
   26.500   1.029E+00
   26.600   1.016E+00
   26.700   1.002E+00
   26.800   9.895E-01
   26.900   9.768E-01
   27.000   9.644E-01
   27.100   9.522E-01
   27.200   9.402E-01
   27.300   9.285E-01
   27.400   9.169E-01
   27.500   9.056E-01
   27.600   8.945E-01
   27.700   8.836E-01
   27.800   8.728E-01
   27.900   8.623E-01
   28.000   8.519E-01
   28.100   8.418E-01
   28.200   8.318E-01
   28.300   8.220E-01
   28.400   8.124E-01
   28.500   8.030E-01
   28.600   7.937E-01
   28.700   7.846E-01
   28.800   7.757E-01
   28.900   7.669E-01
   29.000   7.583E-01
   29.100   7.499E-01
   29.200   7.416E-01
   29.300   7.335E-01
   29.400   7.255E-01
   29.500   7.176E-01
   29.600   7.099E-01
   29.700   7.023E-01
   29.800   6.949E-01
   29.900   6.875E-01
   30.000   6.803E-01
 
 Z=  51 A= 125  D1M-QRPA-Inter
 E[MeV]  fQRPA[mb/MeV]
    0.100   1.443E-04
    0.200   5.773E-04
    0.300   1.300E-03
    0.400   2.312E-03
    0.500   3.616E-03
    0.600   5.214E-03
    0.700   7.107E-03
    0.800   9.298E-03
    0.900   1.179E-02
    1.000   1.459E-02
    1.100   1.769E-02
    1.200   2.111E-02
    1.300   2.484E-02
    1.400   2.890E-02
    1.500   3.328E-02
    1.600   3.800E-02
    1.700   4.305E-02
    1.800   4.846E-02
    1.900   5.422E-02
    2.000   6.034E-02
    2.100   6.683E-02
    2.200   7.370E-02
    2.300   8.097E-02
    2.400   8.864E-02
    2.500   9.672E-02
    2.600   1.052E-01
    2.700   1.142E-01
    2.800   1.236E-01
    2.900   1.334E-01
    3.000   1.438E-01
    3.100   1.547E-01
    3.200   1.660E-01
    3.300   1.779E-01
    3.400   1.904E-01
    3.500   2.035E-01
    3.600   2.171E-01
    3.700   2.314E-01
    3.800   2.463E-01
    3.900   2.619E-01
    4.000   2.783E-01
    4.100   2.953E-01
    4.200   3.131E-01
    4.300   3.318E-01
    4.400   3.512E-01
    4.500   3.716E-01
    4.600   3.928E-01
    4.700   4.150E-01
    4.800   4.383E-01
    4.900   4.625E-01
    5.000   4.879E-01
    5.100   5.144E-01
    5.200   5.422E-01
    5.300   5.711E-01
    5.400   6.015E-01
    5.500   6.332E-01
    5.600   6.664E-01
    5.700   7.011E-01
    5.800   7.374E-01
    5.900   7.754E-01
    6.000   8.152E-01
    6.100   8.569E-01
    6.200   9.004E-01
    6.300   9.461E-01
    6.400   9.938E-01
    6.500   1.044E+00
    6.600   1.096E+00
    6.700   1.151E+00
    6.800   1.208E+00
    6.900   1.268E+00
    7.000   1.331E+00
    7.100   1.396E+00
    7.200   1.465E+00
    7.300   1.536E+00
    7.400   1.611E+00
    7.500   1.689E+00
    7.600   1.771E+00
    7.700   1.856E+00
    7.800   1.945E+00
    7.900   2.038E+00
    8.000   2.134E+00
    8.100   2.235E+00
    8.200   2.341E+00
    8.300   2.451E+00
    8.400   2.566E+00
    8.500   2.686E+00
    8.600   2.811E+00
    8.700   2.942E+00
    8.800   3.079E+00
    8.900   3.222E+00
    9.000   3.372E+00
    9.100   3.530E+00
    9.200   3.695E+00
    9.300   3.867E+00
    9.400   4.049E+00
    9.500   4.239E+00
    9.600   4.438E+00
    9.700   4.648E+00
    9.800   4.867E+00
    9.900   5.097E+00
   10.000   5.338E+00
   10.100   5.590E+00
   10.200   5.853E+00
   10.300   6.128E+00
   10.400   6.415E+00
   10.500   6.714E+00
   10.600   7.025E+00
   10.700   7.347E+00
   10.800   7.680E+00
   10.900   8.024E+00
   11.000   8.379E+00
   11.100   8.743E+00
   11.200   9.116E+00
   11.300   9.497E+00
   11.400   9.884E+00
   11.500   1.028E+01
   11.600   1.067E+01
   11.700   1.107E+01
   11.800   1.148E+01
   11.900   1.188E+01
   12.000   1.228E+01
   12.100   1.267E+01
   12.200   1.306E+01
   12.300   1.345E+01
   12.400   1.382E+01
   12.500   1.419E+01
   12.600   1.455E+01
   12.700   1.489E+01
   12.800   1.522E+01
   12.900   1.554E+01
   13.000   1.584E+01
   13.100   1.612E+01
   13.200   1.637E+01
   13.300   1.661E+01
   13.400   1.682E+01
   13.500   1.700E+01
   13.600   1.716E+01
   13.700   1.728E+01
   13.800   1.737E+01
   13.900   1.743E+01
   14.000   1.746E+01
   14.100   1.745E+01
   14.200   1.741E+01
   14.300   1.734E+01
   14.400   1.723E+01
   14.500   1.709E+01
   14.600   1.693E+01
   14.700   1.674E+01
   14.800   1.652E+01
   14.900   1.629E+01
   15.000   1.603E+01
   15.100   1.575E+01
   15.200   1.546E+01
   15.300   1.515E+01
   15.400   1.483E+01
   15.500   1.450E+01
   15.600   1.417E+01
   15.700   1.383E+01
   15.800   1.348E+01
   15.900   1.314E+01
   16.000   1.279E+01
   16.100   1.244E+01
   16.200   1.210E+01
   16.300   1.176E+01
   16.400   1.143E+01
   16.500   1.110E+01
   16.600   1.077E+01
   16.700   1.046E+01
   16.800   1.015E+01
   16.900   9.843E+00
   17.000   9.548E+00
   17.100   9.261E+00
   17.200   8.982E+00
   17.300   8.711E+00
   17.400   8.448E+00
   17.500   8.193E+00
   17.600   7.945E+00
   17.700   7.706E+00
   17.800   7.474E+00
   17.900   7.249E+00
   18.000   7.032E+00
   18.100   6.821E+00
   18.200   6.618E+00
   18.300   6.421E+00
   18.400   6.231E+00
   18.500   6.048E+00
   18.600   5.871E+00
   18.700   5.700E+00
   18.800   5.536E+00
   18.900   5.377E+00
   19.000   5.224E+00
   19.100   5.077E+00
   19.200   4.935E+00
   19.300   4.798E+00
   19.400   4.666E+00
   19.500   4.540E+00
   19.600   4.418E+00
   19.700   4.301E+00
   19.800   4.188E+00
   19.900   4.079E+00
   20.000   3.974E+00
   20.100   3.874E+00
   20.200   3.777E+00
   20.300   3.683E+00
   20.400   3.594E+00
   20.500   3.507E+00
   20.600   3.424E+00
   20.700   3.343E+00
   20.800   3.266E+00
   20.900   3.191E+00
   21.000   3.119E+00
   21.100   3.049E+00
   21.200   2.982E+00
   21.300   2.917E+00
   21.400   2.854E+00
   21.500   2.794E+00
   21.600   2.735E+00
   21.700   2.679E+00
   21.800   2.624E+00
   21.900   2.571E+00
   22.000   2.520E+00
   22.100   2.470E+00
   22.200   2.422E+00
   22.300   2.375E+00
   22.400   2.330E+00
   22.500   2.286E+00
   22.600   2.244E+00
   22.700   2.202E+00
   22.800   2.162E+00
   22.900   2.123E+00
   23.000   2.085E+00
   23.100   2.049E+00
   23.200   2.013E+00
   23.300   1.978E+00
   23.400   1.945E+00
   23.500   1.912E+00
   23.600   1.880E+00
   23.700   1.849E+00
   23.800   1.819E+00
   23.900   1.789E+00
   24.000   1.761E+00
   24.100   1.733E+00
   24.200   1.705E+00
   24.300   1.679E+00
   24.400   1.653E+00
   24.500   1.628E+00
   24.600   1.603E+00
   24.700   1.579E+00
   24.800   1.556E+00
   24.900   1.533E+00
   25.000   1.510E+00
   25.100   1.489E+00
   25.200   1.467E+00
   25.300   1.446E+00
   25.400   1.426E+00
   25.500   1.406E+00
   25.600   1.387E+00
   25.700   1.368E+00
   25.800   1.349E+00
   25.900   1.331E+00
   26.000   1.313E+00
   26.100   1.296E+00
   26.200   1.279E+00
   26.300   1.262E+00
   26.400   1.246E+00
   26.500   1.230E+00
   26.600   1.214E+00
   26.700   1.199E+00
   26.800   1.184E+00
   26.900   1.169E+00
   27.000   1.155E+00
   27.100   1.140E+00
   27.200   1.127E+00
   27.300   1.113E+00
   27.400   1.100E+00
   27.500   1.087E+00
   27.600   1.074E+00
   27.700   1.061E+00
   27.800   1.049E+00
   27.900   1.037E+00
   28.000   1.025E+00
   28.100   1.013E+00
   28.200   1.002E+00
   28.300   9.905E-01
   28.400   9.794E-01
   28.500   9.686E-01
   28.600   9.579E-01
   28.700   9.475E-01
   28.800   9.372E-01
   28.900   9.271E-01
   29.000   9.171E-01
   29.100   9.074E-01
   29.200   8.978E-01
   29.300   8.884E-01
   29.400   8.791E-01
   29.500   8.700E-01
   29.600   8.610E-01
   29.700   8.522E-01
   29.800   8.435E-01
   29.900   8.350E-01
   30.000   8.266E-01
 
 Z=  51 A= 126  D1M-QRPA-Inter
 E[MeV]  fQRPA[mb/MeV]
    0.100   1.121E-04
    0.200   4.472E-04
    0.300   1.002E-03
    0.400   1.773E-03
    0.500   2.754E-03
    0.600   3.938E-03
    0.700   5.321E-03
    0.800   6.897E-03
    0.900   8.662E-03
    1.000   1.061E-02
    1.100   1.275E-02
    1.200   1.507E-02
    1.300   1.758E-02
    1.400   2.028E-02
    1.500   2.317E-02
    1.600   2.627E-02
    1.700   2.956E-02
    1.800   3.307E-02
    1.900   3.679E-02
    2.000   4.073E-02
    2.100   4.490E-02
    2.200   4.931E-02
    2.300   5.396E-02
    2.400   5.887E-02
    2.500   6.403E-02
    2.600   6.946E-02
    2.700   7.517E-02
    2.800   8.117E-02
    2.900   8.746E-02
    3.000   9.406E-02
    3.100   1.010E-01
    3.200   1.082E-01
    3.300   1.158E-01
    3.400   1.237E-01
    3.500   1.320E-01
    3.600   1.407E-01
    3.700   1.498E-01
    3.800   1.593E-01
    3.900   1.692E-01
    4.000   1.795E-01
    4.100   1.903E-01
    4.200   2.016E-01
    4.300   2.134E-01
    4.400   2.257E-01
    4.500   2.385E-01
    4.600   2.519E-01
    4.700   2.659E-01
    4.800   2.806E-01
    4.900   2.958E-01
    5.000   3.118E-01
    5.100   3.285E-01
    5.200   3.459E-01
    5.300   3.641E-01
    5.400   3.831E-01
    5.500   4.030E-01
    5.600   4.237E-01
    5.700   4.455E-01
    5.800   4.682E-01
    5.900   4.920E-01
    6.000   5.168E-01
    6.100   5.429E-01
    6.200   5.701E-01
    6.300   5.987E-01
    6.400   6.285E-01
    6.500   6.598E-01
    6.600   6.926E-01
    6.700   7.270E-01
    6.800   7.630E-01
    6.900   8.007E-01
    7.000   8.403E-01
    7.100   8.817E-01
    7.200   9.252E-01
    7.300   9.708E-01
    7.400   1.019E+00
    7.500   1.069E+00
    7.600   1.121E+00
    7.700   1.176E+00
    7.800   1.234E+00
    7.900   1.294E+00
    8.000   1.357E+00
    8.100   1.423E+00
    8.200   1.493E+00
    8.300   1.565E+00
    8.400   1.641E+00
    8.500   1.721E+00
    8.600   1.803E+00
    8.700   1.890E+00
    8.800   1.981E+00
    8.900   2.075E+00
    9.000   2.174E+00
    9.100   2.278E+00
    9.200   2.386E+00
    9.300   2.499E+00
    9.400   2.617E+00
    9.500   2.741E+00
    9.600   2.871E+00
    9.700   3.007E+00
    9.800   3.150E+00
    9.900   3.301E+00
   10.000   3.459E+00
   10.100   3.625E+00
   10.200   3.800E+00
   10.300   3.984E+00
   10.400   4.177E+00
   10.500   4.381E+00
   10.600   4.595E+00
   10.700   4.821E+00
   10.800   5.058E+00
   10.900   5.307E+00
   11.000   5.568E+00
   11.100   5.843E+00
   11.200   6.130E+00
   11.300   6.430E+00
   11.400   6.744E+00
   11.500   7.072E+00
   11.600   7.413E+00
   11.700   7.767E+00
   11.800   8.134E+00
   11.900   8.513E+00
   12.000   8.904E+00
   12.100   9.306E+00
   12.200   9.717E+00
   12.300   1.014E+01
   12.400   1.056E+01
   12.500   1.099E+01
   12.600   1.142E+01
   12.700   1.186E+01
   12.800   1.228E+01
   12.900   1.270E+01
   13.000   1.311E+01
   13.100   1.351E+01
   13.200   1.389E+01
   13.300   1.425E+01
   13.400   1.458E+01
   13.500   1.488E+01
   13.600   1.515E+01
   13.700   1.539E+01
   13.800   1.560E+01
   13.900   1.577E+01
   14.000   1.590E+01
   14.100   1.600E+01
   14.200   1.606E+01
   14.300   1.608E+01
   14.400   1.607E+01
   14.500   1.603E+01
   14.600   1.595E+01
   14.700   1.585E+01
   14.800   1.572E+01
   14.900   1.556E+01
   15.000   1.538E+01
   15.100   1.518E+01
   15.200   1.496E+01
   15.300   1.471E+01
   15.400   1.445E+01
   15.500   1.418E+01
   15.600   1.388E+01
   15.700   1.358E+01
   15.800   1.326E+01
   15.900   1.292E+01
   16.000   1.258E+01
   16.100   1.224E+01
   16.200   1.188E+01
   16.300   1.153E+01
   16.400   1.118E+01
   16.500   1.083E+01
   16.600   1.048E+01
   16.700   1.014E+01
   16.800   9.805E+00
   16.900   9.481E+00
   17.000   9.166E+00
   17.100   8.861E+00
   17.200   8.567E+00
   17.300   8.283E+00
   17.400   8.009E+00
   17.500   7.746E+00
   17.600   7.492E+00
   17.700   7.249E+00
   17.800   7.015E+00
   17.900   6.790E+00
   18.000   6.574E+00
   18.100   6.367E+00
   18.200   6.167E+00
   18.300   5.975E+00
   18.400   5.790E+00
   18.500   5.612E+00
   18.600   5.441E+00
   18.700   5.276E+00
   18.800   5.118E+00
   18.900   4.965E+00
   19.000   4.818E+00
   19.100   4.676E+00
   19.200   4.539E+00
   19.300   4.407E+00
   19.400   4.280E+00
   19.500   4.157E+00
   19.600   4.037E+00
   19.700   3.922E+00
   19.800   3.811E+00
   19.900   3.703E+00
   20.000   3.598E+00
   20.100   3.497E+00
   20.200   3.400E+00
   20.300   3.305E+00
   20.400   3.214E+00
   20.500   3.126E+00
   20.600   3.041E+00
   20.700   2.959E+00
   20.800   2.880E+00
   20.900   2.804E+00
   21.000   2.731E+00
   21.100   2.661E+00
   21.200   2.593E+00
   21.300   2.528E+00
   21.400   2.465E+00
   21.500   2.405E+00
   21.600   2.347E+00
   21.700   2.291E+00
   21.800   2.237E+00
   21.900   2.185E+00
   22.000   2.135E+00
   22.100   2.087E+00
   22.200   2.041E+00
   22.300   1.996E+00
   22.400   1.953E+00
   22.500   1.912E+00
   22.600   1.872E+00
   22.700   1.833E+00
   22.800   1.795E+00
   22.900   1.759E+00
   23.000   1.724E+00
   23.100   1.690E+00
   23.200   1.658E+00
   23.300   1.626E+00
   23.400   1.595E+00
   23.500   1.566E+00
   23.600   1.537E+00
   23.700   1.509E+00
   23.800   1.482E+00
   23.900   1.455E+00
   24.000   1.430E+00
   24.100   1.405E+00
   24.200   1.381E+00
   24.300   1.357E+00
   24.400   1.334E+00
   24.500   1.312E+00
   24.600   1.291E+00
   24.700   1.270E+00
   24.800   1.249E+00
   24.900   1.229E+00
   25.000   1.210E+00
   25.100   1.191E+00
   25.200   1.173E+00
   25.300   1.155E+00
   25.400   1.137E+00
   25.500   1.120E+00
   25.600   1.104E+00
   25.700   1.088E+00
   25.800   1.072E+00
   25.900   1.056E+00
   26.000   1.041E+00
   26.100   1.026E+00
   26.200   1.012E+00
   26.300   9.979E-01
   26.400   9.842E-01
   26.500   9.707E-01
   26.600   9.576E-01
   26.700   9.447E-01
   26.800   9.321E-01
   26.900   9.198E-01
   27.000   9.078E-01
   27.100   8.960E-01
   27.200   8.845E-01
   27.300   8.732E-01
   27.400   8.621E-01
   27.500   8.513E-01
   27.600   8.407E-01
   27.700   8.303E-01
   27.800   8.201E-01
   27.900   8.101E-01
   28.000   8.003E-01
   28.100   7.907E-01
   28.200   7.813E-01
   28.300   7.721E-01
   28.400   7.630E-01
   28.500   7.542E-01
   28.600   7.454E-01
   28.700   7.369E-01
   28.800   7.285E-01
   28.900   7.203E-01
   29.000   7.122E-01
   29.100   7.042E-01
   29.200   6.965E-01
   29.300   6.888E-01
   29.400   6.813E-01
   29.500   6.739E-01
   29.600   6.666E-01
   29.700   6.595E-01
   29.800   6.525E-01
   29.900   6.456E-01
   30.000   6.388E-01
 
 Z=  51 A= 127  D1M-QRPA-Inter
 E[MeV]  fQRPA[mb/MeV]
    0.100   1.184E-04
    0.200   4.714E-04
    0.300   1.052E-03
    0.400   1.850E-03
    0.500   2.853E-03
    0.600   4.048E-03
    0.700   5.421E-03
    0.800   6.961E-03
    0.900   8.659E-03
    1.000   1.051E-02
    1.100   1.250E-02
    1.200   1.464E-02
    1.300   1.693E-02
    1.400   1.937E-02
    1.500   2.196E-02
    1.600   2.471E-02
    1.700   2.762E-02
    1.800   3.070E-02
    1.900   3.397E-02
    2.000   3.741E-02
    2.100   4.105E-02
    2.200   4.489E-02
    2.300   4.894E-02
    2.400   5.320E-02
    2.500   5.768E-02
    2.600   6.240E-02
    2.700   6.735E-02
    2.800   7.255E-02
    2.900   7.800E-02
    3.000   8.372E-02
    3.100   8.971E-02
    3.200   9.598E-02
    3.300   1.025E-01
    3.400   1.094E-01
    3.500   1.166E-01
    3.600   1.241E-01
    3.700   1.319E-01
    3.800   1.401E-01
    3.900   1.487E-01
    4.000   1.576E-01
    4.100   1.669E-01
    4.200   1.766E-01
    4.300   1.867E-01
    4.400   1.973E-01
    4.500   2.083E-01
    4.600   2.199E-01
    4.700   2.319E-01
    4.800   2.444E-01
    4.900   2.575E-01
    5.000   2.711E-01
    5.100   2.854E-01
    5.200   3.003E-01
    5.300   3.158E-01
    5.400   3.320E-01
    5.500   3.489E-01
    5.600   3.666E-01
    5.700   3.851E-01
    5.800   4.045E-01
    5.900   4.247E-01
    6.000   4.459E-01
    6.100   4.680E-01
    6.200   4.912E-01
    6.300   5.155E-01
    6.400   5.409E-01
    6.500   5.676E-01
    6.600   5.956E-01
    6.700   6.249E-01
    6.800   6.557E-01
    6.900   6.881E-01
    7.000   7.220E-01
    7.100   7.577E-01
    7.200   7.952E-01
    7.300   8.347E-01
    7.400   8.762E-01
    7.500   9.198E-01
    7.600   9.657E-01
    7.700   1.014E+00
    7.800   1.065E+00
    7.900   1.118E+00
    8.000   1.174E+00
    8.100   1.233E+00
    8.200   1.295E+00
    8.300   1.360E+00
    8.400   1.429E+00
    8.500   1.500E+00
    8.600   1.575E+00
    8.700   1.653E+00
    8.800   1.734E+00
    8.900   1.819E+00
    9.000   1.907E+00
    9.100   2.000E+00
    9.200   2.096E+00
    9.300   2.197E+00
    9.400   2.302E+00
    9.500   2.412E+00
    9.600   2.527E+00
    9.700   2.648E+00
    9.800   2.775E+00
    9.900   2.908E+00
   10.000   3.050E+00
   10.100   3.199E+00
   10.200   3.356E+00
   10.300   3.524E+00
   10.400   3.701E+00
   10.500   3.890E+00
   10.600   4.091E+00
   10.700   4.305E+00
   10.800   4.533E+00
   10.900   4.776E+00
   11.000   5.035E+00
   11.100   5.312E+00
   11.200   5.608E+00
   11.300   5.924E+00
   11.400   6.262E+00
   11.500   6.621E+00
   11.600   7.005E+00
   11.700   7.412E+00
   11.800   7.845E+00
   11.900   8.304E+00
   12.000   8.789E+00
   12.100   9.300E+00
   12.200   9.836E+00
   12.300   1.040E+01
   12.400   1.098E+01
   12.500   1.159E+01
   12.600   1.221E+01
   12.700   1.284E+01
   12.800   1.349E+01
   12.900   1.413E+01
   13.000   1.478E+01
   13.100   1.541E+01
   13.200   1.603E+01
   13.300   1.663E+01
   13.400   1.719E+01
   13.500   1.772E+01
   13.600   1.822E+01
   13.700   1.866E+01
   13.800   1.906E+01
   13.900   1.941E+01
   14.000   1.971E+01
   14.100   1.995E+01
   14.200   2.015E+01
   14.300   2.030E+01
   14.400   2.039E+01
   14.500   2.044E+01
   14.600   2.045E+01
   14.700   2.042E+01
   14.800   2.034E+01
   14.900   2.023E+01
   15.000   2.009E+01
   15.100   1.991E+01
   15.200   1.969E+01
   15.300   1.945E+01
   15.400   1.917E+01
   15.500   1.886E+01
   15.600   1.851E+01
   15.700   1.814E+01
   15.800   1.773E+01
   15.900   1.730E+01
   16.000   1.685E+01
   16.100   1.637E+01
   16.200   1.588E+01
   16.300   1.538E+01
   16.400   1.488E+01
   16.500   1.437E+01
   16.600   1.387E+01
   16.700   1.338E+01
   16.800   1.290E+01
   16.900   1.243E+01
   17.000   1.197E+01
   17.100   1.154E+01
   17.200   1.112E+01
   17.300   1.072E+01
   17.400   1.033E+01
   17.500   9.964E+00
   17.600   9.614E+00
   17.700   9.279E+00
   17.800   8.960E+00
   17.900   8.655E+00
   18.000   8.364E+00
   18.100   8.086E+00
   18.200   7.820E+00
   18.300   7.565E+00
   18.400   7.320E+00
   18.500   7.086E+00
   18.600   6.862E+00
   18.700   6.646E+00
   18.800   6.438E+00
   18.900   6.239E+00
   19.000   6.047E+00
   19.100   5.861E+00
   19.200   5.682E+00
   19.300   5.509E+00
   19.400   5.341E+00
   19.500   5.178E+00
   19.600   5.021E+00
   19.700   4.867E+00
   19.800   4.718E+00
   19.900   4.574E+00
   20.000   4.433E+00
   20.100   4.297E+00
   20.200   4.164E+00
   20.300   4.036E+00
   20.400   3.912E+00
   20.500   3.792E+00
   20.600   3.676E+00
   20.700   3.565E+00
   20.800   3.457E+00
   20.900   3.354E+00
   21.000   3.255E+00
   21.100   3.159E+00
   21.200   3.068E+00
   21.300   2.981E+00
   21.400   2.897E+00
   21.500   2.816E+00
   21.600   2.739E+00
   21.700   2.666E+00
   21.800   2.595E+00
   21.900   2.527E+00
   22.000   2.462E+00
   22.100   2.400E+00
   22.200   2.340E+00
   22.300   2.283E+00
   22.400   2.228E+00
   22.500   2.175E+00
   22.600   2.125E+00
   22.700   2.076E+00
   22.800   2.029E+00
   22.900   1.983E+00
   23.000   1.940E+00
   23.100   1.898E+00
   23.200   1.857E+00
   23.300   1.818E+00
   23.400   1.781E+00
   23.500   1.744E+00
   23.600   1.709E+00
   23.700   1.675E+00
   23.800   1.642E+00
   23.900   1.611E+00
   24.000   1.580E+00
   24.100   1.550E+00
   24.200   1.521E+00
   24.300   1.493E+00
   24.400   1.466E+00
   24.500   1.440E+00
   24.600   1.414E+00
   24.700   1.389E+00
   24.800   1.365E+00
   24.900   1.342E+00
   25.000   1.319E+00
   25.100   1.297E+00
   25.200   1.276E+00
   25.300   1.255E+00
   25.400   1.234E+00
   25.500   1.215E+00
   25.600   1.195E+00
   25.700   1.177E+00
   25.800   1.158E+00
   25.900   1.141E+00
   26.000   1.123E+00
   26.100   1.106E+00
   26.200   1.090E+00
   26.300   1.074E+00
   26.400   1.058E+00
   26.500   1.043E+00
   26.600   1.028E+00
   26.700   1.013E+00
   26.800   9.988E-01
   26.900   9.848E-01
   27.000   9.712E-01
   27.100   9.579E-01
   27.200   9.449E-01
   27.300   9.321E-01
   27.400   9.197E-01
   27.500   9.075E-01
   27.600   8.956E-01
   27.700   8.840E-01
   27.800   8.725E-01
   27.900   8.614E-01
   28.000   8.504E-01
   28.100   8.397E-01
   28.200   8.292E-01
   28.300   8.190E-01
   28.400   8.089E-01
   28.500   7.990E-01
   28.600   7.894E-01
   28.700   7.799E-01
   28.800   7.706E-01
   28.900   7.615E-01
   29.000   7.525E-01
   29.100   7.438E-01
   29.200   7.352E-01
   29.300   7.267E-01
   29.400   7.184E-01
   29.500   7.103E-01
   29.600   7.023E-01
   29.700   6.945E-01
   29.800   6.868E-01
   29.900   6.792E-01
   30.000   6.718E-01
 
 Z=  51 A= 128  D1M-QRPA-Inter
 E[MeV]  fQRPA[mb/MeV]
    0.100   2.001E-04
    0.200   6.717E-04
    0.300   1.304E-03
    0.400   2.065E-03
    0.500   2.946E-03
    0.600   3.941E-03
    0.700   5.051E-03
    0.800   6.276E-03
    0.900   7.616E-03
    1.000   9.073E-03
    1.100   1.065E-02
    1.200   1.235E-02
    1.300   1.418E-02
    1.400   1.614E-02
    1.500   1.823E-02
    1.600   2.046E-02
    1.700   2.283E-02
    1.800   2.536E-02
    1.900   2.803E-02
    2.000   3.087E-02
    2.100   3.387E-02
    2.200   3.704E-02
    2.300   4.038E-02
    2.400   4.391E-02
    2.500   4.762E-02
    2.600   5.153E-02
    2.700   5.563E-02
    2.800   5.994E-02
    2.900   6.446E-02
    3.000   6.920E-02
    3.100   7.416E-02
    3.200   7.936E-02
    3.300   8.480E-02
    3.400   9.049E-02
    3.500   9.644E-02
    3.600   1.027E-01
    3.700   1.092E-01
    3.800   1.159E-01
    3.900   1.230E-01
    4.000   1.304E-01
    4.100   1.381E-01
    4.200   1.462E-01
    4.300   1.546E-01
    4.400   1.633E-01
    4.500   1.725E-01
    4.600   1.820E-01
    4.700   1.919E-01
    4.800   2.023E-01
    4.900   2.131E-01
    5.000   2.244E-01
    5.100   2.362E-01
    5.200   2.485E-01
    5.300   2.613E-01
    5.400   2.746E-01
    5.500   2.886E-01
    5.600   3.031E-01
    5.700   3.184E-01
    5.800   3.343E-01
    5.900   3.509E-01
    6.000   3.682E-01
    6.100   3.864E-01
    6.200   4.054E-01
    6.300   4.253E-01
    6.400   4.462E-01
    6.500   4.680E-01
    6.600   4.909E-01
    6.700   5.149E-01
    6.800   5.401E-01
    6.900   5.666E-01
    7.000   5.944E-01
    7.100   6.236E-01
    7.200   6.543E-01
    7.300   6.865E-01
    7.400   7.204E-01
    7.500   7.560E-01
    7.600   7.935E-01
    7.700   8.329E-01
    7.800   8.743E-01
    7.900   9.178E-01
    8.000   9.635E-01
    8.100   1.011E+00
    8.200   1.062E+00
    8.300   1.114E+00
    8.400   1.170E+00
    8.500   1.227E+00
    8.600   1.288E+00
    8.700   1.350E+00
    8.800   1.416E+00
    8.900   1.484E+00
    9.000   1.556E+00
    9.100   1.630E+00
    9.200   1.707E+00
    9.300   1.788E+00
    9.400   1.873E+00
    9.500   1.961E+00
    9.600   2.054E+00
    9.700   2.151E+00
    9.800   2.254E+00
    9.900   2.361E+00
   10.000   2.475E+00
   10.100   2.595E+00
   10.200   2.722E+00
   10.300   2.856E+00
   10.400   2.998E+00
   10.500   3.149E+00
   10.600   3.310E+00
   10.700   3.480E+00
   10.800   3.662E+00
   10.900   3.855E+00
   11.000   4.061E+00
   11.100   4.281E+00
   11.200   4.515E+00
   11.300   4.765E+00
   11.400   5.031E+00
   11.500   5.315E+00
   11.600   5.617E+00
   11.700   5.939E+00
   11.800   6.282E+00
   11.900   6.645E+00
   12.000   7.029E+00
   12.100   7.436E+00
   12.200   7.864E+00
   12.300   8.313E+00
   12.400   8.784E+00
   12.500   9.275E+00
   12.600   9.783E+00
   12.700   1.031E+01
   12.800   1.085E+01
   12.900   1.139E+01
   13.000   1.195E+01
   13.100   1.250E+01
   13.200   1.305E+01
   13.300   1.359E+01
   13.400   1.411E+01
   13.500   1.461E+01
   13.600   1.509E+01
   13.700   1.553E+01
   13.800   1.594E+01
   13.900   1.630E+01
   14.000   1.663E+01
   14.100   1.691E+01
   14.200   1.715E+01
   14.300   1.734E+01
   14.400   1.749E+01
   14.500   1.759E+01
   14.600   1.765E+01
   14.700   1.767E+01
   14.800   1.764E+01
   14.900   1.758E+01
   15.000   1.747E+01
   15.100   1.733E+01
   15.200   1.714E+01
   15.300   1.692E+01
   15.400   1.667E+01
   15.500   1.638E+01
   15.600   1.605E+01
   15.700   1.570E+01
   15.800   1.531E+01
   15.900   1.491E+01
   16.000   1.448E+01
   16.100   1.404E+01
   16.200   1.359E+01
   16.300   1.314E+01
   16.400   1.268E+01
   16.500   1.223E+01
   16.600   1.179E+01
   16.700   1.135E+01
   16.800   1.093E+01
   16.900   1.052E+01
   17.000   1.013E+01
   17.100   9.753E+00
   17.200   9.395E+00
   17.300   9.053E+00
   17.400   8.729E+00
   17.500   8.420E+00
   17.600   8.128E+00
   17.700   7.851E+00
   17.800   7.587E+00
   17.900   7.338E+00
   18.000   7.100E+00
   18.100   6.874E+00
   18.200   6.658E+00
   18.300   6.452E+00
   18.400   6.255E+00
   18.500   6.066E+00
   18.600   5.883E+00
   18.700   5.708E+00
   18.800   5.538E+00
   18.900   5.374E+00
   19.000   5.214E+00
   19.100   5.059E+00
   19.200   4.908E+00
   19.300   4.762E+00
   19.400   4.618E+00
   19.500   4.479E+00
   19.600   4.343E+00
   19.700   4.210E+00
   19.800   4.081E+00
   19.900   3.955E+00
   20.000   3.833E+00
   20.100   3.714E+00
   20.200   3.598E+00
   20.300   3.486E+00
   20.400   3.377E+00
   20.500   3.272E+00
   20.600   3.171E+00
   20.700   3.074E+00
   20.800   2.980E+00
   20.900   2.889E+00
   21.000   2.803E+00
   21.100   2.719E+00
   21.200   2.640E+00
   21.300   2.563E+00
   21.400   2.490E+00
   21.500   2.420E+00
   21.600   2.353E+00
   21.700   2.289E+00
   21.800   2.227E+00
   21.900   2.169E+00
   22.000   2.112E+00
   22.100   2.058E+00
   22.200   2.006E+00
   22.300   1.957E+00
   22.400   1.909E+00
   22.500   1.863E+00
   22.600   1.819E+00
   22.700   1.777E+00
   22.800   1.736E+00
   22.900   1.697E+00
   23.000   1.659E+00
   23.100   1.623E+00
   23.200   1.588E+00
   23.300   1.554E+00
   23.400   1.522E+00
   23.500   1.490E+00
   23.600   1.460E+00
   23.700   1.430E+00
   23.800   1.402E+00
   23.900   1.375E+00
   24.000   1.348E+00
   24.100   1.323E+00
   24.200   1.298E+00
   24.300   1.274E+00
   24.400   1.250E+00
   24.500   1.228E+00
   24.600   1.206E+00
   24.700   1.184E+00
   24.800   1.164E+00
   24.900   1.144E+00
   25.000   1.124E+00
   25.100   1.105E+00
   25.200   1.087E+00
   25.300   1.069E+00
   25.400   1.051E+00
   25.500   1.034E+00
   25.600   1.018E+00
   25.700   1.002E+00
   25.800   9.860E-01
   25.900   9.707E-01
   26.000   9.558E-01
   26.100   9.413E-01
   26.200   9.272E-01
   26.300   9.134E-01
   26.400   8.999E-01
   26.500   8.868E-01
   26.600   8.740E-01
   26.700   8.615E-01
   26.800   8.493E-01
   26.900   8.373E-01
   27.000   8.257E-01
   27.100   8.143E-01
   27.200   8.031E-01
   27.300   7.923E-01
   27.400   7.816E-01
   27.500   7.712E-01
   27.600   7.610E-01
   27.700   7.511E-01
   27.800   7.413E-01
   27.900   7.318E-01
   28.000   7.224E-01
   28.100   7.133E-01
   28.200   7.043E-01
   28.300   6.955E-01
   28.400   6.869E-01
   28.500   6.785E-01
   28.600   6.703E-01
   28.700   6.622E-01
   28.800   6.542E-01
   28.900   6.464E-01
   29.000   6.388E-01
   29.100   6.313E-01
   29.200   6.240E-01
   29.300   6.168E-01
   29.400   6.097E-01
   29.500   6.028E-01
   29.600   5.960E-01
   29.700   5.893E-01
   29.800   5.828E-01
   29.900   5.763E-01
   30.000   5.700E-01
 
 Z=  51 A= 129  D1M-QRPA-Inter
 E[MeV]  fQRPA[mb/MeV]
    0.100   4.700E-04
    0.200   1.331E-03
    0.300   2.247E-03
    0.400   3.205E-03
    0.500   4.228E-03
    0.600   5.336E-03
    0.700   6.544E-03
    0.800   7.867E-03
    0.900   9.314E-03
    1.000   1.089E-02
    1.100   1.262E-02
    1.200   1.448E-02
    1.300   1.651E-02
    1.400   1.869E-02
    1.500   2.104E-02
    1.600   2.355E-02
    1.700   2.624E-02
    1.800   2.911E-02
    1.900   3.217E-02
    2.000   3.541E-02
    2.100   3.885E-02
    2.200   4.249E-02
    2.300   4.633E-02
    2.400   5.039E-02
    2.500   5.466E-02
    2.600   5.916E-02
    2.700   6.389E-02
    2.800   6.885E-02
    2.900   7.406E-02
    3.000   7.952E-02
    3.100   8.524E-02
    3.200   9.124E-02
    3.300   9.751E-02
    3.400   1.041E-01
    3.500   1.109E-01
    3.600   1.181E-01
    3.700   1.256E-01
    3.800   1.334E-01
    3.900   1.415E-01
    4.000   1.501E-01
    4.100   1.589E-01
    4.200   1.682E-01
    4.300   1.779E-01
    4.400   1.880E-01
    4.500   1.985E-01
    4.600   2.095E-01
    4.700   2.209E-01
    4.800   2.328E-01
    4.900   2.453E-01
    5.000   2.582E-01
    5.100   2.718E-01
    5.200   2.858E-01
    5.300   3.005E-01
    5.400   3.159E-01
    5.500   3.318E-01
    5.600   3.485E-01
    5.700   3.659E-01
    5.800   3.840E-01
    5.900   4.030E-01
    6.000   4.228E-01
    6.100   4.436E-01
    6.200   4.652E-01
    6.300   4.879E-01
    6.400   5.117E-01
    6.500   5.365E-01
    6.600   5.626E-01
    6.700   5.900E-01
    6.800   6.186E-01
    6.900   6.487E-01
    7.000   6.804E-01
    7.100   7.135E-01
    7.200   7.484E-01
    7.300   7.851E-01
    7.400   8.236E-01
    7.500   8.640E-01
    7.600   9.065E-01
    7.700   9.512E-01
    7.800   9.981E-01
    7.900   1.047E+00
    8.000   1.099E+00
    8.100   1.153E+00
    8.200   1.210E+00
    8.300   1.269E+00
    8.400   1.331E+00
    8.500   1.396E+00
    8.600   1.464E+00
    8.700   1.534E+00
    8.800   1.608E+00
    8.900   1.684E+00
    9.000   1.764E+00
    9.100   1.847E+00
    9.200   1.934E+00
    9.300   2.024E+00
    9.400   2.119E+00
    9.500   2.218E+00
    9.600   2.321E+00
    9.700   2.430E+00
    9.800   2.545E+00
    9.900   2.666E+00
   10.000   2.793E+00
   10.100   2.927E+00
   10.200   3.069E+00
   10.300   3.219E+00
   10.400   3.377E+00
   10.500   3.545E+00
   10.600   3.724E+00
   10.700   3.913E+00
   10.800   4.113E+00
   10.900   4.327E+00
   11.000   4.554E+00
   11.100   4.796E+00
   11.200   5.053E+00
   11.300   5.328E+00
   11.400   5.620E+00
   11.500   5.932E+00
   11.600   6.264E+00
   11.700   6.617E+00
   11.800   6.993E+00
   11.900   7.393E+00
   12.000   7.817E+00
   12.100   8.266E+00
   12.200   8.741E+00
   12.300   9.242E+00
   12.400   9.770E+00
   12.500   1.032E+01
   12.600   1.090E+01
   12.700   1.150E+01
   12.800   1.213E+01
   12.900   1.277E+01
   13.000   1.343E+01
   13.100   1.410E+01
   13.200   1.477E+01
   13.300   1.544E+01
   13.400   1.610E+01
   13.500   1.675E+01
   13.600   1.737E+01
   13.700   1.797E+01
   13.800   1.853E+01
   13.900   1.904E+01
   14.000   1.951E+01
   14.100   1.993E+01
   14.200   2.029E+01
   14.300   2.060E+01
   14.400   2.085E+01
   14.500   2.105E+01
   14.600   2.118E+01
   14.700   2.126E+01
   14.800   2.127E+01
   14.900   2.123E+01
   15.000   2.113E+01
   15.100   2.097E+01
   15.200   2.075E+01
   15.300   2.048E+01
   15.400   2.015E+01
   15.500   1.977E+01
   15.600   1.935E+01
   15.700   1.889E+01
   15.800   1.839E+01
   15.900   1.786E+01
   16.000   1.731E+01
   16.100   1.675E+01
   16.200   1.618E+01
   16.300   1.560E+01
   16.400   1.503E+01
   16.500   1.447E+01
   16.600   1.392E+01
   16.700   1.339E+01
   16.800   1.288E+01
   16.900   1.238E+01
   17.000   1.191E+01
   17.100   1.146E+01
   17.200   1.104E+01
   17.300   1.063E+01
   17.400   1.025E+01
   17.500   9.894E+00
   17.600   9.554E+00
   17.700   9.235E+00
   17.800   8.933E+00
   17.900   8.649E+00
   18.000   8.380E+00
   18.100   8.125E+00
   18.200   7.883E+00
   18.300   7.652E+00
   18.400   7.431E+00
   18.500   7.219E+00
   18.600   7.014E+00
   18.700   6.816E+00
   18.800   6.623E+00
   18.900   6.435E+00
   19.000   6.251E+00
   19.100   6.072E+00
   19.200   5.895E+00
   19.300   5.722E+00
   19.400   5.553E+00
   19.500   5.386E+00
   19.600   5.223E+00
   19.700   5.064E+00
   19.800   4.908E+00
   19.900   4.755E+00
   20.000   4.607E+00
   20.100   4.462E+00
   20.200   4.322E+00
   20.300   4.186E+00
   20.400   4.054E+00
   20.500   3.926E+00
   20.600   3.803E+00
   20.700   3.685E+00
   20.800   3.570E+00
   20.900   3.461E+00
   21.000   3.356E+00
   21.100   3.255E+00
   21.200   3.158E+00
   21.300   3.065E+00
   21.400   2.977E+00
   21.500   2.892E+00
   21.600   2.810E+00
   21.700   2.733E+00
   21.800   2.658E+00
   21.900   2.587E+00
   22.000   2.519E+00
   22.100   2.454E+00
   22.200   2.391E+00
   22.300   2.331E+00
   22.400   2.274E+00
   22.500   2.218E+00
   22.600   2.165E+00
   22.700   2.114E+00
   22.800   2.065E+00
   22.900   2.018E+00
   23.000   1.973E+00
   23.100   1.929E+00
   23.200   1.887E+00
   23.300   1.847E+00
   23.400   1.808E+00
   23.500   1.770E+00
   23.600   1.733E+00
   23.700   1.698E+00
   23.800   1.664E+00
   23.900   1.631E+00
   24.000   1.600E+00
   24.100   1.569E+00
   24.200   1.539E+00
   24.300   1.510E+00
   24.400   1.482E+00
   24.500   1.455E+00
   24.600   1.429E+00
   24.700   1.404E+00
   24.800   1.379E+00
   24.900   1.355E+00
   25.000   1.332E+00
   25.100   1.309E+00
   25.200   1.287E+00
   25.300   1.265E+00
   25.400   1.245E+00
   25.500   1.224E+00
   25.600   1.205E+00
   25.700   1.186E+00
   25.800   1.167E+00
   25.900   1.149E+00
   26.000   1.131E+00
   26.100   1.114E+00
   26.200   1.097E+00
   26.300   1.080E+00
   26.400   1.064E+00
   26.500   1.049E+00
   26.600   1.033E+00
   26.700   1.019E+00
   26.800   1.004E+00
   26.900   9.898E-01
   27.000   9.760E-01
   27.100   9.624E-01
   27.200   9.492E-01
   27.300   9.362E-01
   27.400   9.236E-01
   27.500   9.112E-01
   27.600   8.991E-01
   27.700   8.873E-01
   27.800   8.757E-01
   27.900   8.643E-01
   28.000   8.532E-01
   28.100   8.424E-01
   28.200   8.317E-01
   28.300   8.213E-01
   28.400   8.111E-01
   28.500   8.011E-01
   28.600   7.913E-01
   28.700   7.817E-01
   28.800   7.723E-01
   28.900   7.630E-01
   29.000   7.540E-01
   29.100   7.451E-01
   29.200   7.364E-01
   29.300   7.279E-01
   29.400   7.195E-01
   29.500   7.113E-01
   29.600   7.032E-01
   29.700   6.953E-01
   29.800   6.875E-01
   29.900   6.799E-01
   30.000   6.724E-01
 
 Z=  51 A= 130  D1M-QRPA-Inter
 E[MeV]  fQRPA[mb/MeV]
    0.100   2.309E-04
    0.200   7.759E-04
    0.300   1.510E-03
    0.400   2.398E-03
    0.500   3.432E-03
    0.600   4.609E-03
    0.700   5.931E-03
    0.800   7.400E-03
    0.900   9.017E-03
    1.000   1.079E-02
    1.100   1.271E-02
    1.200   1.479E-02
    1.300   1.704E-02
    1.400   1.945E-02
    1.500   2.204E-02
    1.600   2.480E-02
    1.700   2.774E-02
    1.800   3.087E-02
    1.900   3.420E-02
    2.000   3.772E-02
    2.100   4.146E-02
    2.200   4.540E-02
    2.300   4.957E-02
    2.400   5.397E-02
    2.500   5.860E-02
    2.600   6.347E-02
    2.700   6.859E-02
    2.800   7.397E-02
    2.900   7.962E-02
    3.000   8.555E-02
    3.100   9.176E-02
    3.200   9.827E-02
    3.300   1.051E-01
    3.400   1.122E-01
    3.500   1.197E-01
    3.600   1.275E-01
    3.700   1.356E-01
    3.800   1.442E-01
    3.900   1.531E-01
    4.000   1.624E-01
    4.100   1.721E-01
    4.200   1.823E-01
    4.300   1.929E-01
    4.400   2.039E-01
    4.500   2.155E-01
    4.600   2.275E-01
    4.700   2.401E-01
    4.800   2.533E-01
    4.900   2.670E-01
    5.000   2.814E-01
    5.100   2.963E-01
    5.200   3.120E-01
    5.300   3.283E-01
    5.400   3.454E-01
    5.500   3.632E-01
    5.600   3.818E-01
    5.700   4.013E-01
    5.800   4.217E-01
    5.900   4.430E-01
    6.000   4.653E-01
    6.100   4.887E-01
    6.200   5.132E-01
    6.300   5.389E-01
    6.400   5.658E-01
    6.500   5.940E-01
    6.600   6.237E-01
    6.700   6.548E-01
    6.800   6.875E-01
    6.900   7.219E-01
    7.000   7.580E-01
    7.100   7.960E-01
    7.200   8.360E-01
    7.300   8.781E-01
    7.400   9.224E-01
    7.500   9.690E-01
    7.600   1.018E+00
    7.700   1.070E+00
    7.800   1.124E+00
    7.900   1.181E+00
    8.000   1.242E+00
    8.100   1.305E+00
    8.200   1.371E+00
    8.300   1.441E+00
    8.400   1.515E+00
    8.500   1.592E+00
    8.600   1.672E+00
    8.700   1.757E+00
    8.800   1.846E+00
    8.900   1.939E+00
    9.000   2.037E+00
    9.100   2.140E+00
    9.200   2.248E+00
    9.300   2.362E+00
    9.400   2.482E+00
    9.500   2.609E+00
    9.600   2.742E+00
    9.700   2.884E+00
    9.800   3.034E+00
    9.900   3.192E+00
   10.000   3.361E+00
   10.100   3.540E+00
   10.200   3.730E+00
   10.300   3.931E+00
   10.400   4.146E+00
   10.500   4.375E+00
   10.600   4.618E+00
   10.700   4.876E+00
   10.800   5.152E+00
   10.900   5.445E+00
   11.000   5.757E+00
   11.100   6.089E+00
   11.200   6.442E+00
   11.300   6.817E+00
   11.400   7.214E+00
   11.500   7.634E+00
   11.600   8.077E+00
   11.700   8.543E+00
   11.800   9.032E+00
   11.900   9.541E+00
   12.000   1.007E+01
   12.100   1.062E+01
   12.200   1.118E+01
   12.300   1.175E+01
   12.400   1.233E+01
   12.500   1.291E+01
   12.600   1.349E+01
   12.700   1.405E+01
   12.800   1.461E+01
   12.900   1.515E+01
   13.000   1.566E+01
   13.100   1.614E+01
   13.200   1.658E+01
   13.300   1.698E+01
   13.400   1.734E+01
   13.500   1.765E+01
   13.600   1.790E+01
   13.700   1.810E+01
   13.800   1.825E+01
   13.900   1.834E+01
   14.000   1.838E+01
   14.100   1.836E+01
   14.200   1.830E+01
   14.300   1.819E+01
   14.400   1.804E+01
   14.500   1.785E+01
   14.600   1.763E+01
   14.700   1.737E+01
   14.800   1.708E+01
   14.900   1.677E+01
   15.000   1.643E+01
   15.100   1.608E+01
   15.200   1.570E+01
   15.300   1.531E+01
   15.400   1.491E+01
   15.500   1.450E+01
   15.600   1.408E+01
   15.700   1.366E+01
   15.800   1.323E+01
   15.900   1.280E+01
   16.000   1.238E+01
   16.100   1.196E+01
   16.200   1.155E+01
   16.300   1.115E+01
   16.400   1.076E+01
   16.500   1.037E+01
   16.600   1.000E+01
   16.700   9.646E+00
   16.800   9.302E+00
   16.900   8.972E+00
   17.000   8.655E+00
   17.100   8.352E+00
   17.200   8.062E+00
   17.300   7.785E+00
   17.400   7.521E+00
   17.500   7.269E+00
   17.600   7.028E+00
   17.700   6.799E+00
   17.800   6.580E+00
   17.900   6.370E+00
   18.000   6.169E+00
   18.100   5.977E+00
   18.200   5.793E+00
   18.300   5.616E+00
   18.400   5.446E+00
   18.500   5.281E+00
   18.600   5.123E+00
   18.700   4.969E+00
   18.800   4.821E+00
   18.900   4.677E+00
   19.000   4.538E+00
   19.100   4.402E+00
   19.200   4.271E+00
   19.300   4.144E+00
   19.400   4.021E+00
   19.500   3.901E+00
   19.600   3.785E+00
   19.700   3.673E+00
   19.800   3.564E+00
   19.900   3.459E+00
   20.000   3.357E+00
   20.100   3.259E+00
   20.200   3.164E+00
   20.300   3.072E+00
   20.400   2.984E+00
   20.500   2.899E+00
   20.600   2.817E+00
   20.700   2.738E+00
   20.800   2.663E+00
   20.900   2.590E+00
   21.000   2.520E+00
   21.100   2.453E+00
   21.200   2.388E+00
   21.300   2.326E+00
   21.400   2.267E+00
   21.500   2.209E+00
   21.600   2.155E+00
   21.700   2.102E+00
   21.800   2.051E+00
   21.900   2.002E+00
   22.000   1.956E+00
   22.100   1.910E+00
   22.200   1.867E+00
   22.300   1.825E+00
   22.400   1.785E+00
   22.500   1.746E+00
   22.600   1.709E+00
   22.700   1.673E+00
   22.800   1.638E+00
   22.900   1.604E+00
   23.000   1.572E+00
   23.100   1.541E+00
   23.200   1.510E+00
   23.300   1.481E+00
   23.400   1.452E+00
   23.500   1.425E+00
   23.600   1.398E+00
   23.700   1.372E+00
   23.800   1.347E+00
   23.900   1.323E+00
   24.000   1.300E+00
   24.100   1.277E+00
   24.200   1.255E+00
   24.300   1.233E+00
   24.400   1.212E+00
   24.500   1.192E+00
   24.600   1.172E+00
   24.700   1.153E+00
   24.800   1.134E+00
   24.900   1.116E+00
   25.000   1.098E+00
   25.100   1.081E+00
   25.200   1.064E+00
   25.300   1.047E+00
   25.400   1.031E+00
   25.500   1.016E+00
   25.600   1.001E+00
   25.700   9.859E-01
   25.800   9.714E-01
   25.900   9.573E-01
   26.000   9.435E-01
   26.100   9.300E-01
   26.200   9.169E-01
   26.300   9.041E-01
   26.400   8.915E-01
   26.500   8.793E-01
   26.600   8.673E-01
   26.700   8.556E-01
   26.800   8.441E-01
   26.900   8.329E-01
   27.000   8.220E-01
   27.100   8.112E-01
   27.200   8.007E-01
   27.300   7.905E-01
   27.400   7.804E-01
   27.500   7.705E-01
   27.600   7.609E-01
   27.700   7.514E-01
   27.800   7.422E-01
   27.900   7.331E-01
   28.000   7.242E-01
   28.100   7.155E-01
   28.200   7.069E-01
   28.300   6.986E-01
   28.400   6.903E-01
   28.500   6.823E-01
   28.600   6.744E-01
   28.700   6.666E-01
   28.800   6.590E-01
   28.900   6.515E-01
   29.000   6.442E-01
   29.100   6.370E-01
   29.200   6.299E-01
   29.300   6.229E-01
   29.400   6.161E-01
   29.500   6.094E-01
   29.600   6.028E-01
   29.700   5.964E-01
   29.800   5.900E-01
   29.900   5.838E-01
   30.000   5.776E-01
 
 Z=  51 A= 131  D1M-QRPA-Inter
 E[MeV]  fQRPA[mb/MeV]
    0.100   1.330E-04
    0.200   5.307E-04
    0.300   1.190E-03
    0.400   2.104E-03
    0.500   3.267E-03
    0.600   4.670E-03
    0.700   6.304E-03
    0.800   8.163E-03
    0.900   1.024E-02
    1.000   1.253E-02
    1.100   1.502E-02
    1.200   1.772E-02
    1.300   2.063E-02
    1.400   2.374E-02
    1.500   2.707E-02
    1.600   3.062E-02
    1.700   3.439E-02
    1.800   3.839E-02
    1.900   4.264E-02
    2.000   4.713E-02
    2.100   5.188E-02
    2.200   5.690E-02
    2.300   6.220E-02
    2.400   6.778E-02
    2.500   7.367E-02
    2.600   7.986E-02
    2.700   8.637E-02
    2.800   9.321E-02
    2.900   1.004E-01
    3.000   1.079E-01
    3.100   1.158E-01
    3.200   1.241E-01
    3.300   1.328E-01
    3.400   1.419E-01
    3.500   1.514E-01
    3.600   1.614E-01
    3.700   1.718E-01
    3.800   1.827E-01
    3.900   1.941E-01
    4.000   2.061E-01
    4.100   2.185E-01
    4.200   2.316E-01
    4.300   2.452E-01
    4.400   2.594E-01
    4.500   2.743E-01
    4.600   2.899E-01
    4.700   3.061E-01
    4.800   3.231E-01
    4.900   3.409E-01
    5.000   3.595E-01
    5.100   3.790E-01
    5.200   3.993E-01
    5.300   4.206E-01
    5.400   4.429E-01
    5.500   4.662E-01
    5.600   4.906E-01
    5.700   5.162E-01
    5.800   5.430E-01
    5.900   5.711E-01
    6.000   6.005E-01
    6.100   6.314E-01
    6.200   6.639E-01
    6.300   6.979E-01
    6.400   7.337E-01
    6.500   7.713E-01
    6.600   8.108E-01
    6.700   8.523E-01
    6.800   8.960E-01
    6.900   9.420E-01
    7.000   9.904E-01
    7.100   1.041E+00
    7.200   1.095E+00
    7.300   1.152E+00
    7.400   1.212E+00
    7.500   1.274E+00
    7.600   1.341E+00
    7.700   1.411E+00
    7.800   1.485E+00
    7.900   1.563E+00
    8.000   1.645E+00
    8.100   1.731E+00
    8.200   1.823E+00
    8.300   1.919E+00
    8.400   2.021E+00
    8.500   2.128E+00
    8.600   2.241E+00
    8.700   2.360E+00
    8.800   2.486E+00
    8.900   2.618E+00
    9.000   2.759E+00
    9.100   2.908E+00
    9.200   3.065E+00
    9.300   3.232E+00
    9.400   3.410E+00
    9.500   3.598E+00
    9.600   3.799E+00
    9.700   4.013E+00
    9.800   4.241E+00
    9.900   4.484E+00
   10.000   4.743E+00
   10.100   5.020E+00
   10.200   5.316E+00
   10.300   5.632E+00
   10.400   5.969E+00
   10.500   6.330E+00
   10.600   6.716E+00
   10.700   7.127E+00
   10.800   7.567E+00
   10.900   8.036E+00
   11.000   8.536E+00
   11.100   9.067E+00
   11.200   9.632E+00
   11.300   1.023E+01
   11.400   1.086E+01
   11.500   1.152E+01
   11.600   1.222E+01
   11.700   1.294E+01
   11.800   1.368E+01
   11.900   1.444E+01
   12.000   1.522E+01
   12.100   1.599E+01
   12.200   1.676E+01
   12.300   1.752E+01
   12.400   1.824E+01
   12.500   1.893E+01
   12.600   1.956E+01
   12.700   2.014E+01
   12.800   2.064E+01
   12.900   2.107E+01
   13.000   2.141E+01
   13.100   2.166E+01
   13.200   2.183E+01
   13.300   2.190E+01
   13.400   2.189E+01
   13.500   2.180E+01
   13.600   2.163E+01
   13.700   2.138E+01
   13.800   2.108E+01
   13.900   2.071E+01
   14.000   2.030E+01
   14.100   1.984E+01
   14.200   1.935E+01
   14.300   1.884E+01
   14.400   1.830E+01
   14.500   1.776E+01
   14.600   1.720E+01
   14.700   1.664E+01
   14.800   1.608E+01
   14.900   1.553E+01
   15.000   1.499E+01
   15.100   1.445E+01
   15.200   1.393E+01
   15.300   1.343E+01
   15.400   1.294E+01
   15.500   1.247E+01
   15.600   1.201E+01
   15.700   1.158E+01
   15.800   1.116E+01
   15.900   1.076E+01
   16.000   1.038E+01
   16.100   1.002E+01
   16.200   9.672E+00
   16.300   9.340E+00
   16.400   9.023E+00
   16.500   8.719E+00
   16.600   8.428E+00
   16.700   8.149E+00
   16.800   7.880E+00
   16.900   7.623E+00
   17.000   7.375E+00
   17.100   7.136E+00
   17.200   6.906E+00
   17.300   6.684E+00
   17.400   6.470E+00
   17.500   6.263E+00
   17.600   6.063E+00
   17.700   5.870E+00
   17.800   5.683E+00
   17.900   5.502E+00
   18.000   5.327E+00
   18.100   5.157E+00
   18.200   4.993E+00
   18.300   4.834E+00
   18.400   4.680E+00
   18.500   4.531E+00
   18.600   4.388E+00
   18.700   4.249E+00
   18.800   4.115E+00
   18.900   3.987E+00
   19.000   3.863E+00
   19.100   3.744E+00
   19.200   3.629E+00
   19.300   3.519E+00
   19.400   3.414E+00
   19.500   3.313E+00
   19.600   3.216E+00
   19.700   3.124E+00
   19.800   3.035E+00
   19.900   2.950E+00
   20.000   2.869E+00
   20.100   2.791E+00
   20.200   2.716E+00
   20.300   2.645E+00
   20.400   2.576E+00
   20.500   2.510E+00
   20.600   2.447E+00
   20.700   2.387E+00
   20.800   2.329E+00
   20.900   2.273E+00
   21.000   2.219E+00
   21.100   2.168E+00
   21.200   2.118E+00
   21.300   2.070E+00
   21.400   2.024E+00
   21.500   1.980E+00
   21.600   1.937E+00
   21.700   1.896E+00
   21.800   1.856E+00
   21.900   1.818E+00
   22.000   1.780E+00
   22.100   1.744E+00
   22.200   1.710E+00
   22.300   1.676E+00
   22.400   1.644E+00
   22.500   1.612E+00
   22.600   1.582E+00
   22.700   1.552E+00
   22.800   1.524E+00
   22.900   1.496E+00
   23.000   1.469E+00
   23.100   1.443E+00
   23.200   1.417E+00
   23.300   1.393E+00
   23.400   1.369E+00
   23.500   1.345E+00
   23.600   1.323E+00
   23.700   1.301E+00
   23.800   1.279E+00
   23.900   1.258E+00
   24.000   1.238E+00
   24.100   1.218E+00
   24.200   1.199E+00
   24.300   1.180E+00
   24.400   1.162E+00
   24.500   1.144E+00
   24.600   1.127E+00
   24.700   1.110E+00
   24.800   1.094E+00
   24.900   1.077E+00
   25.000   1.062E+00
   25.100   1.046E+00
   25.200   1.031E+00
   25.300   1.017E+00
   25.400   1.002E+00
   25.500   9.884E-01
   25.600   9.748E-01
   25.700   9.614E-01
   25.800   9.484E-01
   25.900   9.356E-01
   26.000   9.231E-01
   26.100   9.109E-01
   26.200   8.989E-01
   26.300   8.872E-01
   26.400   8.758E-01
   26.500   8.645E-01
   26.600   8.536E-01
   26.700   8.428E-01
   26.800   8.323E-01
   26.900   8.219E-01
   27.000   8.118E-01
   27.100   8.019E-01
   27.200   7.922E-01
   27.300   7.827E-01
   27.400   7.733E-01
   27.500   7.641E-01
   27.600   7.552E-01
   27.700   7.463E-01
   27.800   7.377E-01
   27.900   7.292E-01
   28.000   7.209E-01
   28.100   7.127E-01
   28.200   7.047E-01
   28.300   6.968E-01
   28.400   6.890E-01
   28.500   6.814E-01
   28.600   6.740E-01
   28.700   6.666E-01
   28.800   6.594E-01
   28.900   6.524E-01
   29.000   6.454E-01
   29.100   6.386E-01
   29.200   6.318E-01
   29.300   6.252E-01
   29.400   6.187E-01
   29.500   6.123E-01
   29.600   6.061E-01
   29.700   5.999E-01
   29.800   5.938E-01
   29.900   5.878E-01
   30.000   5.820E-01
 
 Z=  51 A= 135  D1M-QRPA-Inter
 E[MeV]  fQRPA[mb/MeV]
    0.100   1.143E-04
    0.200   4.575E-04
    0.300   1.030E-03
    0.400   1.833E-03
    0.500   2.867E-03
    0.600   4.134E-03
    0.700   5.636E-03
    0.800   7.375E-03
    0.900   9.353E-03
    1.000   1.157E-02
    1.100   1.404E-02
    1.200   1.676E-02
    1.300   1.973E-02
    1.400   2.296E-02
    1.500   2.645E-02
    1.600   3.021E-02
    1.700   3.424E-02
    1.800   3.856E-02
    1.900   4.316E-02
    2.000   4.806E-02
    2.100   5.326E-02
    2.200   5.878E-02
    2.300   6.461E-02
    2.400   7.078E-02
    2.500   7.728E-02
    2.600   8.414E-02
    2.700   9.137E-02
    2.800   9.897E-02
    2.900   1.070E-01
    3.000   1.154E-01
    3.100   1.242E-01
    3.200   1.334E-01
    3.300   1.431E-01
    3.400   1.533E-01
    3.500   1.640E-01
    3.600   1.752E-01
    3.700   1.869E-01
    3.800   1.992E-01
    3.900   2.121E-01
    4.000   2.256E-01
    4.100   2.398E-01
    4.200   2.546E-01
    4.300   2.701E-01
    4.400   2.864E-01
    4.500   3.035E-01
    4.600   3.213E-01
    4.700   3.401E-01
    4.800   3.597E-01
    4.900   3.803E-01
    5.000   4.019E-01
    5.100   4.246E-01
    5.200   4.484E-01
    5.300   4.733E-01
    5.400   4.994E-01
    5.500   5.269E-01
    5.600   5.556E-01
    5.700   5.858E-01
    5.800   6.174E-01
    5.900   6.505E-01
    6.000   6.851E-01
    6.100   7.214E-01
    6.200   7.593E-01
    6.300   7.989E-01
    6.400   8.403E-01
    6.500   8.833E-01
    6.600   9.281E-01
    6.700   9.747E-01
    6.800   1.023E+00
    6.900   1.073E+00
    7.000   1.125E+00
    7.100   1.178E+00
    7.200   1.233E+00
    7.300   1.290E+00
    7.400   1.348E+00
    7.500   1.408E+00
    7.600   1.470E+00
    7.700   1.533E+00
    7.800   1.598E+00
    7.900   1.665E+00
    8.000   1.735E+00
    8.100   1.806E+00
    8.200   1.881E+00
    8.300   1.958E+00
    8.400   2.037E+00
    8.500   2.121E+00
    8.600   2.207E+00
    8.700   2.298E+00
    8.800   2.392E+00
    8.900   2.491E+00
    9.000   2.595E+00
    9.100   2.704E+00
    9.200   2.818E+00
    9.300   2.938E+00
    9.400   3.063E+00
    9.500   3.196E+00
    9.600   3.335E+00
    9.700   3.480E+00
    9.800   3.634E+00
    9.900   3.795E+00
   10.000   3.965E+00
   10.100   4.143E+00
   10.200   4.330E+00
   10.300   4.526E+00
   10.400   4.733E+00
   10.500   4.950E+00
   10.600   5.178E+00
   10.700   5.417E+00
   10.800   5.668E+00
   10.900   5.932E+00
   11.000   6.210E+00
   11.100   6.502E+00
   11.200   6.809E+00
   11.300   7.131E+00
   11.400   7.471E+00
   11.500   7.828E+00
   11.600   8.204E+00
   11.700   8.599E+00
   11.800   9.013E+00
   11.900   9.447E+00
   12.000   9.901E+00
   12.100   1.037E+01
   12.200   1.087E+01
   12.300   1.138E+01
   12.400   1.190E+01
   12.500   1.244E+01
   12.600   1.299E+01
   12.700   1.355E+01
   12.800   1.411E+01
   12.900   1.467E+01
   13.000   1.522E+01
   13.100   1.575E+01
   13.200   1.627E+01
   13.300   1.675E+01
   13.400   1.720E+01
   13.500   1.762E+01
   13.600   1.798E+01
   13.700   1.829E+01
   13.800   1.855E+01
   13.900   1.874E+01
   14.000   1.888E+01
   14.100   1.894E+01
   14.200   1.895E+01
   14.300   1.889E+01
   14.400   1.877E+01
   14.500   1.860E+01
   14.600   1.837E+01
   14.700   1.809E+01
   14.800   1.778E+01
   14.900   1.742E+01
   15.000   1.704E+01
   15.100   1.664E+01
   15.200   1.622E+01
   15.300   1.579E+01
   15.400   1.535E+01
   15.500   1.492E+01
   15.600   1.448E+01
   15.700   1.406E+01
   15.800   1.364E+01
   15.900   1.324E+01
   16.000   1.285E+01
   16.100   1.247E+01
   16.200   1.211E+01
   16.300   1.176E+01
   16.400   1.143E+01
   16.500   1.111E+01
   16.600   1.081E+01
   16.700   1.051E+01
   16.800   1.023E+01
   16.900   9.956E+00
   17.000   9.692E+00
   17.100   9.436E+00
   17.200   9.187E+00
   17.300   8.944E+00
   17.400   8.706E+00
   17.500   8.474E+00
   17.600   8.246E+00
   17.700   8.022E+00
   17.800   7.802E+00
   17.900   7.586E+00
   18.000   7.374E+00
   18.100   7.166E+00
   18.200   6.962E+00
   18.300   6.761E+00
   18.400   6.565E+00
   18.500   6.373E+00
   18.600   6.185E+00
   18.700   6.002E+00
   18.800   5.823E+00
   18.900   5.648E+00
   19.000   5.479E+00
   19.100   5.314E+00
   19.200   5.154E+00
   19.300   4.999E+00
   19.400   4.848E+00
   19.500   4.703E+00
   19.600   4.563E+00
   19.700   4.428E+00
   19.800   4.297E+00
   19.900   4.171E+00
   20.000   4.050E+00
   20.100   3.934E+00
   20.200   3.822E+00
   20.300   3.714E+00
   20.400   3.611E+00
   20.500   3.511E+00
   20.600   3.416E+00
   20.700   3.324E+00
   20.800   3.235E+00
   20.900   3.151E+00
   21.000   3.069E+00
   21.100   2.991E+00
   21.200   2.916E+00
   21.300   2.843E+00
   21.400   2.774E+00
   21.500   2.707E+00
   21.600   2.643E+00
   21.700   2.581E+00
   21.800   2.521E+00
   21.900   2.463E+00
   22.000   2.408E+00
   22.100   2.355E+00
   22.200   2.303E+00
   22.300   2.253E+00
   22.400   2.205E+00
   22.500   2.159E+00
   22.600   2.114E+00
   22.700   2.071E+00
   22.800   2.029E+00
   22.900   1.989E+00
   23.000   1.950E+00
   23.100   1.912E+00
   23.200   1.875E+00
   23.300   1.839E+00
   23.400   1.805E+00
   23.500   1.771E+00
   23.600   1.739E+00
   23.700   1.708E+00
   23.800   1.677E+00
   23.900   1.648E+00
   24.000   1.619E+00
   24.100   1.591E+00
   24.200   1.564E+00
   24.300   1.537E+00
   24.400   1.512E+00
   24.500   1.487E+00
   24.600   1.462E+00
   24.700   1.439E+00
   24.800   1.416E+00
   24.900   1.393E+00
   25.000   1.371E+00
   25.100   1.350E+00
   25.200   1.329E+00
   25.300   1.309E+00
   25.400   1.289E+00
   25.500   1.270E+00
   25.600   1.251E+00
   25.700   1.233E+00
   25.800   1.215E+00
   25.900   1.197E+00
   26.000   1.180E+00
   26.100   1.164E+00
   26.200   1.147E+00
   26.300   1.132E+00
   26.400   1.116E+00
   26.500   1.101E+00
   26.600   1.086E+00
   26.700   1.071E+00
   26.800   1.057E+00
   26.900   1.043E+00
   27.000   1.030E+00
   27.100   1.016E+00
   27.200   1.003E+00
   27.300   9.904E-01
   27.400   9.779E-01
   27.500   9.657E-01
   27.600   9.536E-01
   27.700   9.419E-01
   27.800   9.303E-01
   27.900   9.190E-01
   28.000   9.080E-01
   28.100   8.971E-01
   28.200   8.864E-01
   28.300   8.760E-01
   28.400   8.657E-01
   28.500   8.557E-01
   28.600   8.458E-01
   28.700   8.361E-01
   28.800   8.266E-01
   28.900   8.173E-01
   29.000   8.082E-01
   29.100   7.992E-01
   29.200   7.903E-01
   29.300   7.817E-01
   29.400   7.731E-01
   29.500   7.648E-01
   29.600   7.566E-01
   29.700   7.485E-01
   29.800   7.405E-01
   29.900   7.327E-01
   30.000   7.251E-01
 
 Z=  51 A= 136  D1M-QRPA-Inter
 E[MeV]  fQRPA[mb/MeV]
    0.100   1.112E-04
    0.200   4.451E-04
    0.300   1.002E-03
    0.400   1.783E-03
    0.500   2.789E-03
    0.600   4.021E-03
    0.700   5.482E-03
    0.800   7.173E-03
    0.900   9.097E-03
    1.000   1.126E-02
    1.100   1.365E-02
    1.200   1.630E-02
    1.300   1.918E-02
    1.400   2.232E-02
    1.500   2.571E-02
    1.600   2.937E-02
    1.700   3.329E-02
    1.800   3.748E-02
    1.900   4.195E-02
    2.000   4.670E-02
    2.100   5.175E-02
    2.200   5.710E-02
    2.300   6.276E-02
    2.400   6.874E-02
    2.500   7.505E-02
    2.600   8.169E-02
    2.700   8.869E-02
    2.800   9.604E-02
    2.900   1.038E-01
    3.000   1.119E-01
    3.100   1.204E-01
    3.200   1.293E-01
    3.300   1.387E-01
    3.400   1.485E-01
    3.500   1.588E-01
    3.600   1.696E-01
    3.700   1.809E-01
    3.800   1.927E-01
    3.900   2.050E-01
    4.000   2.180E-01
    4.100   2.315E-01
    4.200   2.456E-01
    4.300   2.604E-01
    4.400   2.759E-01
    4.500   2.921E-01
    4.600   3.091E-01
    4.700   3.268E-01
    4.800   3.454E-01
    4.900   3.648E-01
    5.000   3.852E-01
    5.100   4.064E-01
    5.200   4.287E-01
    5.300   4.520E-01
    5.400   4.764E-01
    5.500   5.019E-01
    5.600   5.287E-01
    5.700   5.567E-01
    5.800   5.860E-01
    5.900   6.166E-01
    6.000   6.487E-01
    6.100   6.822E-01
    6.200   7.172E-01
    6.300   7.538E-01
    6.400   7.920E-01
    6.500   8.318E-01
    6.600   8.733E-01
    6.700   9.164E-01
    6.800   9.613E-01
    6.900   1.008E+00
    7.000   1.056E+00
    7.100   1.106E+00
    7.200   1.158E+00
    7.300   1.211E+00
    7.400   1.266E+00
    7.500   1.323E+00
    7.600   1.382E+00
    7.700   1.442E+00
    7.800   1.504E+00
    7.900   1.568E+00
    8.000   1.634E+00
    8.100   1.702E+00
    8.200   1.772E+00
    8.300   1.844E+00
    8.400   1.919E+00
    8.500   1.996E+00
    8.600   2.077E+00
    8.700   2.160E+00
    8.800   2.247E+00
    8.900   2.337E+00
    9.000   2.431E+00
    9.100   2.529E+00
    9.200   2.632E+00
    9.300   2.739E+00
    9.400   2.852E+00
    9.500   2.969E+00
    9.600   3.092E+00
    9.700   3.221E+00
    9.800   3.357E+00
    9.900   3.498E+00
   10.000   3.647E+00
   10.100   3.803E+00
   10.200   3.967E+00
   10.300   4.138E+00
   10.400   4.318E+00
   10.500   4.506E+00
   10.600   4.704E+00
   10.700   4.911E+00
   10.800   5.128E+00
   10.900   5.356E+00
   11.000   5.594E+00
   11.100   5.844E+00
   11.200   6.106E+00
   11.300   6.381E+00
   11.400   6.669E+00
   11.500   6.970E+00
   11.600   7.285E+00
   11.700   7.615E+00
   11.800   7.959E+00
   11.900   8.318E+00
   12.000   8.692E+00
   12.100   9.080E+00
   12.200   9.481E+00
   12.300   9.896E+00
   12.400   1.032E+01
   12.500   1.076E+01
   12.600   1.120E+01
   12.700   1.165E+01
   12.800   1.211E+01
   12.900   1.256E+01
   13.000   1.301E+01
   13.100   1.345E+01
   13.200   1.388E+01
   13.300   1.429E+01
   13.400   1.469E+01
   13.500   1.505E+01
   13.600   1.539E+01
   13.700   1.570E+01
   13.800   1.596E+01
   13.900   1.619E+01
   14.000   1.638E+01
   14.100   1.652E+01
   14.200   1.662E+01
   14.300   1.667E+01
   14.400   1.667E+01
   14.500   1.663E+01
   14.600   1.655E+01
   14.700   1.643E+01
   14.800   1.626E+01
   14.900   1.607E+01
   15.000   1.584E+01
   15.100   1.558E+01
   15.200   1.530E+01
   15.300   1.500E+01
   15.400   1.469E+01
   15.500   1.436E+01
   15.600   1.402E+01
   15.700   1.368E+01
   15.800   1.334E+01
   15.900   1.299E+01
   16.000   1.265E+01
   16.100   1.232E+01
   16.200   1.198E+01
   16.300   1.166E+01
   16.400   1.133E+01
   16.500   1.102E+01
   16.600   1.072E+01
   16.700   1.042E+01
   16.800   1.012E+01
   16.900   9.841E+00
   17.000   9.563E+00
   17.100   9.292E+00
   17.200   9.028E+00
   17.300   8.771E+00
   17.400   8.519E+00
   17.500   8.273E+00
   17.600   8.034E+00
   17.700   7.800E+00
   17.800   7.572E+00
   17.900   7.350E+00
   18.000   7.133E+00
   18.100   6.922E+00
   18.200   6.717E+00
   18.300   6.517E+00
   18.400   6.322E+00
   18.500   6.133E+00
   18.600   5.950E+00
   18.700   5.772E+00
   18.800   5.599E+00
   18.900   5.432E+00
   19.000   5.270E+00
   19.100   5.113E+00
   19.200   4.962E+00
   19.300   4.815E+00
   19.400   4.674E+00
   19.500   4.538E+00
   19.600   4.406E+00
   19.700   4.279E+00
   19.800   4.157E+00
   19.900   4.040E+00
   20.000   3.927E+00
   20.100   3.818E+00
   20.200   3.713E+00
   20.300   3.612E+00
   20.400   3.515E+00
   20.500   3.422E+00
   20.600   3.333E+00
   20.700   3.246E+00
   20.800   3.164E+00
   20.900   3.084E+00
   21.000   3.007E+00
   21.100   2.933E+00
   21.200   2.862E+00
   21.300   2.794E+00
   21.400   2.728E+00
   21.500   2.664E+00
   21.600   2.603E+00
   21.700   2.544E+00
   21.800   2.487E+00
   21.900   2.432E+00
   22.000   2.379E+00
   22.100   2.327E+00
   22.200   2.278E+00
   22.300   2.230E+00
   22.400   2.184E+00
   22.500   2.139E+00
   22.600   2.096E+00
   22.700   2.054E+00
   22.800   2.014E+00
   22.900   1.974E+00
   23.000   1.936E+00
   23.100   1.900E+00
   23.200   1.864E+00
   23.300   1.829E+00
   23.400   1.796E+00
   23.500   1.763E+00
   23.600   1.731E+00
   23.700   1.701E+00
   23.800   1.671E+00
   23.900   1.642E+00
   24.000   1.613E+00
   24.100   1.586E+00
   24.200   1.559E+00
   24.300   1.533E+00
   24.400   1.508E+00
   24.500   1.484E+00
   24.600   1.460E+00
   24.700   1.436E+00
   24.800   1.414E+00
   24.900   1.391E+00
   25.000   1.370E+00
   25.100   1.349E+00
   25.200   1.328E+00
   25.300   1.308E+00
   25.400   1.289E+00
   25.500   1.270E+00
   25.600   1.251E+00
   25.700   1.233E+00
   25.800   1.215E+00
   25.900   1.198E+00
   26.000   1.181E+00
   26.100   1.164E+00
   26.200   1.148E+00
   26.300   1.132E+00
   26.400   1.117E+00
   26.500   1.102E+00
   26.600   1.087E+00
   26.700   1.073E+00
   26.800   1.058E+00
   26.900   1.045E+00
   27.000   1.031E+00
   27.100   1.018E+00
   27.200   1.005E+00
   27.300   9.921E-01
   27.400   9.796E-01
   27.500   9.674E-01
   27.600   9.554E-01
   27.700   9.437E-01
   27.800   9.322E-01
   27.900   9.209E-01
   28.000   9.099E-01
   28.100   8.990E-01
   28.200   8.884E-01
   28.300   8.780E-01
   28.400   8.678E-01
   28.500   8.577E-01
   28.600   8.479E-01
   28.700   8.382E-01
   28.800   8.287E-01
   28.900   8.194E-01
   29.000   8.102E-01
   29.100   8.013E-01
   29.200   7.924E-01
   29.300   7.838E-01
   29.400   7.752E-01
   29.500   7.669E-01
   29.600   7.587E-01
   29.700   7.506E-01
   29.800   7.426E-01
   29.900   7.348E-01
   30.000   7.272E-01
 
 Z=  51 A= 137  D1M-QRPA-Inter
 E[MeV]  fQRPA[mb/MeV]
    0.100   1.328E-04
    0.200   5.312E-04
    0.300   1.196E-03
    0.400   2.128E-03
    0.500   3.328E-03
    0.600   4.799E-03
    0.700   6.542E-03
    0.800   8.560E-03
    0.900   1.086E-02
    1.000   1.343E-02
    1.100   1.629E-02
    1.200   1.944E-02
    1.300   2.289E-02
    1.400   2.663E-02
    1.500   3.067E-02
    1.600   3.503E-02
    1.700   3.970E-02
    1.800   4.470E-02
    1.900   5.002E-02
    2.000   5.569E-02
    2.100   6.170E-02
    2.200   6.807E-02
    2.300   7.480E-02
    2.400   8.191E-02
    2.500   8.941E-02
    2.600   9.731E-02
    2.700   1.056E-01
    2.800   1.144E-01
    2.900   1.235E-01
    3.000   1.332E-01
    3.100   1.433E-01
    3.200   1.538E-01
    3.300   1.649E-01
    3.400   1.765E-01
    3.500   1.887E-01
    3.600   2.014E-01
    3.700   2.147E-01
    3.800   2.286E-01
    3.900   2.432E-01
    4.000   2.583E-01
    4.100   2.742E-01
    4.200   2.908E-01
    4.300   3.081E-01
    4.400   3.262E-01
    4.500   3.451E-01
    4.600   3.648E-01
    4.700   3.854E-01
    4.800   4.069E-01
    4.900   4.294E-01
    5.000   4.528E-01
    5.100   4.773E-01
    5.200   5.029E-01
    5.300   5.296E-01
    5.400   5.576E-01
    5.500   5.867E-01
    5.600   6.172E-01
    5.700   6.491E-01
    5.800   6.824E-01
    5.900   7.172E-01
    6.000   7.535E-01
    6.100   7.915E-01
    6.200   8.312E-01
    6.300   8.726E-01
    6.400   9.159E-01
    6.500   9.610E-01
    6.600   1.008E+00
    6.700   1.057E+00
    6.800   1.108E+00
    6.900   1.162E+00
    7.000   1.217E+00
    7.100   1.274E+00
    7.200   1.334E+00
    7.300   1.396E+00
    7.400   1.459E+00
    7.500   1.525E+00
    7.600   1.594E+00
    7.700   1.664E+00
    7.800   1.736E+00
    7.900   1.811E+00
    8.000   1.888E+00
    8.100   1.967E+00
    8.200   2.048E+00
    8.300   2.131E+00
    8.400   2.217E+00
    8.500   2.306E+00
    8.600   2.397E+00
    8.700   2.492E+00
    8.800   2.589E+00
    8.900   2.690E+00
    9.000   2.795E+00
    9.100   2.903E+00
    9.200   3.016E+00
    9.300   3.134E+00
    9.400   3.257E+00
    9.500   3.385E+00
    9.600   3.518E+00
    9.700   3.658E+00
    9.800   3.804E+00
    9.900   3.957E+00
   10.000   4.116E+00
   10.100   4.284E+00
   10.200   4.459E+00
   10.300   4.642E+00
   10.400   4.833E+00
   10.500   5.034E+00
   10.600   5.244E+00
   10.700   5.463E+00
   10.800   5.693E+00
   10.900   5.933E+00
   11.000   6.184E+00
   11.100   6.446E+00
   11.200   6.720E+00
   11.300   7.005E+00
   11.400   7.303E+00
   11.500   7.614E+00
   11.600   7.937E+00
   11.700   8.274E+00
   11.800   8.623E+00
   11.900   8.986E+00
   12.000   9.361E+00
   12.100   9.749E+00
   12.200   1.015E+01
   12.300   1.056E+01
   12.400   1.098E+01
   12.500   1.141E+01
   12.600   1.185E+01
   12.700   1.230E+01
   12.800   1.275E+01
   12.900   1.320E+01
   13.000   1.365E+01
   13.100   1.409E+01
   13.200   1.453E+01
   13.300   1.496E+01
   13.400   1.538E+01
   13.500   1.578E+01
   13.600   1.616E+01
   13.700   1.652E+01
   13.800   1.686E+01
   13.900   1.717E+01
   14.000   1.744E+01
   14.100   1.768E+01
   14.200   1.788E+01
   14.300   1.805E+01
   14.400   1.817E+01
   14.500   1.826E+01
   14.600   1.830E+01
   14.700   1.830E+01
   14.800   1.826E+01
   14.900   1.818E+01
   15.000   1.806E+01
   15.100   1.790E+01
   15.200   1.771E+01
   15.300   1.749E+01
   15.400   1.723E+01
   15.500   1.696E+01
   15.600   1.666E+01
   15.700   1.634E+01
   15.800   1.600E+01
   15.900   1.565E+01
   16.000   1.529E+01
   16.100   1.492E+01
   16.200   1.455E+01
   16.300   1.417E+01
   16.400   1.379E+01
   16.500   1.341E+01
   16.600   1.304E+01
   16.700   1.266E+01
   16.800   1.230E+01
   16.900   1.193E+01
   17.000   1.158E+01
   17.100   1.123E+01
   17.200   1.089E+01
   17.300   1.055E+01
   17.400   1.023E+01
   17.500   9.911E+00
   17.600   9.604E+00
   17.700   9.306E+00
   17.800   9.017E+00
   17.900   8.737E+00
   18.000   8.466E+00
   18.100   8.204E+00
   18.200   7.951E+00
   18.300   7.706E+00
   18.400   7.470E+00
   18.500   7.242E+00
   18.600   7.023E+00
   18.700   6.811E+00
   18.800   6.606E+00
   18.900   6.409E+00
   19.000   6.220E+00
   19.100   6.037E+00
   19.200   5.861E+00
   19.300   5.691E+00
   19.400   5.528E+00
   19.500   5.371E+00
   19.600   5.220E+00
   19.700   5.075E+00
   19.800   4.935E+00
   19.900   4.800E+00
   20.000   4.671E+00
   20.100   4.546E+00
   20.200   4.426E+00
   20.300   4.311E+00
   20.400   4.200E+00
   20.500   4.093E+00
   20.600   3.990E+00
   20.700   3.891E+00
   20.800   3.795E+00
   20.900   3.703E+00
   21.000   3.615E+00
   21.100   3.529E+00
   21.200   3.447E+00
   21.300   3.367E+00
   21.400   3.291E+00
   21.500   3.217E+00
   21.600   3.145E+00
   21.700   3.076E+00
   21.800   3.010E+00
   21.900   2.945E+00
   22.000   2.883E+00
   22.100   2.823E+00
   22.200   2.764E+00
   22.300   2.708E+00
   22.400   2.653E+00
   22.500   2.601E+00
   22.600   2.549E+00
   22.700   2.500E+00
   22.800   2.452E+00
   22.900   2.405E+00
   23.000   2.360E+00
   23.100   2.316E+00
   23.200   2.273E+00
   23.300   2.232E+00
   23.400   2.192E+00
   23.500   2.153E+00
   23.600   2.115E+00
   23.700   2.078E+00
   23.800   2.042E+00
   23.900   2.007E+00
   24.000   1.973E+00
   24.100   1.940E+00
   24.200   1.908E+00
   24.300   1.877E+00
   24.400   1.846E+00
   24.500   1.816E+00
   24.600   1.788E+00
   24.700   1.759E+00
   24.800   1.732E+00
   24.900   1.705E+00
   25.000   1.679E+00
   25.100   1.653E+00
   25.200   1.629E+00
   25.300   1.604E+00
   25.400   1.581E+00
   25.500   1.558E+00
   25.600   1.535E+00
   25.700   1.513E+00
   25.800   1.491E+00
   25.900   1.470E+00
   26.000   1.450E+00
   26.100   1.429E+00
   26.200   1.410E+00
   26.300   1.391E+00
   26.400   1.372E+00
   26.500   1.353E+00
   26.600   1.335E+00
   26.700   1.318E+00
   26.800   1.300E+00
   26.900   1.283E+00
   27.000   1.267E+00
   27.100   1.251E+00
   27.200   1.235E+00
   27.300   1.219E+00
   27.400   1.204E+00
   27.500   1.189E+00
   27.600   1.174E+00
   27.700   1.160E+00
   27.800   1.146E+00
   27.900   1.132E+00
   28.000   1.119E+00
   28.100   1.105E+00
   28.200   1.092E+00
   28.300   1.080E+00
   28.400   1.067E+00
   28.500   1.055E+00
   28.600   1.043E+00
   28.700   1.031E+00
   28.800   1.019E+00
   28.900   1.008E+00
   29.000   9.967E-01
   29.100   9.857E-01
   29.200   9.748E-01
   29.300   9.642E-01
   29.400   9.538E-01
   29.500   9.435E-01
   29.600   9.334E-01
   29.700   9.235E-01
   29.800   9.137E-01
   29.900   9.042E-01
   30.000   8.947E-01
 
 Z=  51 A= 138  D1M-QRPA-Inter
 E[MeV]  fQRPA[mb/MeV]
    0.100   1.331E-04
    0.200   5.327E-04
    0.300   1.199E-03
    0.400   2.134E-03
    0.500   3.338E-03
    0.600   4.813E-03
    0.700   6.561E-03
    0.800   8.584E-03
    0.900   1.089E-02
    1.000   1.347E-02
    1.100   1.634E-02
    1.200   1.950E-02
    1.300   2.295E-02
    1.400   2.670E-02
    1.500   3.076E-02
    1.600   3.513E-02
    1.700   3.981E-02
    1.800   4.482E-02
    1.900   5.016E-02
    2.000   5.584E-02
    2.100   6.186E-02
    2.200   6.825E-02
    2.300   7.500E-02
    2.400   8.212E-02
    2.500   8.964E-02
    2.600   9.755E-02
    2.700   1.059E-01
    2.800   1.146E-01
    2.900   1.238E-01
    3.000   1.335E-01
    3.100   1.436E-01
    3.200   1.542E-01
    3.300   1.654E-01
    3.400   1.770E-01
    3.500   1.892E-01
    3.600   2.020E-01
    3.700   2.154E-01
    3.800   2.293E-01
    3.900   2.440E-01
    4.000   2.593E-01
    4.100   2.753E-01
    4.200   2.920E-01
    4.300   3.095E-01
    4.400   3.277E-01
    4.500   3.469E-01
    4.600   3.668E-01
    4.700   3.877E-01
    4.800   4.095E-01
    4.900   4.323E-01
    5.000   4.562E-01
    5.100   4.811E-01
    5.200   5.071E-01
    5.300   5.343E-01
    5.400   5.628E-01
    5.500   5.925E-01
    5.600   6.236E-01
    5.700   6.561E-01
    5.800   6.900E-01
    5.900   7.255E-01
    6.000   7.626E-01
    6.100   8.013E-01
    6.200   8.416E-01
    6.300   8.838E-01
    6.400   9.277E-01
    6.500   9.735E-01
    6.600   1.021E+00
    6.700   1.071E+00
    6.800   1.123E+00
    6.900   1.176E+00
    7.000   1.232E+00
    7.100   1.289E+00
    7.200   1.349E+00
    7.300   1.411E+00
    7.400   1.475E+00
    7.500   1.540E+00
    7.600   1.608E+00
    7.700   1.678E+00
    7.800   1.750E+00
    7.900   1.823E+00
    8.000   1.899E+00
    8.100   1.977E+00
    8.200   2.057E+00
    8.300   2.140E+00
    8.400   2.225E+00
    8.500   2.312E+00
    8.600   2.402E+00
    8.700   2.495E+00
    8.800   2.592E+00
    8.900   2.692E+00
    9.000   2.795E+00
    9.100   2.903E+00
    9.200   3.015E+00
    9.300   3.132E+00
    9.400   3.254E+00
    9.500   3.381E+00
    9.600   3.514E+00
    9.700   3.653E+00
    9.800   3.799E+00
    9.900   3.952E+00
   10.000   4.112E+00
   10.100   4.279E+00
   10.200   4.455E+00
   10.300   4.639E+00
   10.400   4.832E+00
   10.500   5.033E+00
   10.600   5.244E+00
   10.700   5.465E+00
   10.800   5.696E+00
   10.900   5.937E+00
   11.000   6.189E+00
   11.100   6.452E+00
   11.200   6.726E+00
   11.300   7.011E+00
   11.400   7.307E+00
   11.500   7.615E+00
   11.600   7.934E+00
   11.700   8.264E+00
   11.800   8.605E+00
   11.900   8.956E+00
   12.000   9.317E+00
   12.100   9.686E+00
   12.200   1.006E+01
   12.300   1.045E+01
   12.400   1.083E+01
   12.500   1.123E+01
   12.600   1.162E+01
   12.700   1.201E+01
   12.800   1.240E+01
   12.900   1.278E+01
   13.000   1.315E+01
   13.100   1.351E+01
   13.200   1.385E+01
   13.300   1.418E+01
   13.400   1.449E+01
   13.500   1.477E+01
   13.600   1.503E+01
   13.700   1.526E+01
   13.800   1.547E+01
   13.900   1.564E+01
   14.000   1.578E+01
   14.100   1.588E+01
   14.200   1.595E+01
   14.300   1.598E+01
   14.400   1.598E+01
   14.500   1.595E+01
   14.600   1.588E+01
   14.700   1.578E+01
   14.800   1.565E+01
   14.900   1.549E+01
   15.000   1.530E+01
   15.100   1.509E+01
   15.200   1.485E+01
   15.300   1.460E+01
   15.400   1.433E+01
   15.500   1.404E+01
   15.600   1.374E+01
   15.700   1.343E+01
   15.800   1.312E+01
   15.900   1.280E+01
   16.000   1.247E+01
   16.100   1.215E+01
   16.200   1.182E+01
   16.300   1.150E+01
   16.400   1.118E+01
   16.500   1.086E+01
   16.600   1.055E+01
   16.700   1.024E+01
   16.800   9.938E+00
   16.900   9.643E+00
   17.000   9.354E+00
   17.100   9.073E+00
   17.200   8.799E+00
   17.300   8.532E+00
   17.400   8.273E+00
   17.500   8.021E+00
   17.600   7.777E+00
   17.700   7.541E+00
   17.800   7.313E+00
   17.900   7.092E+00
   18.000   6.878E+00
   18.100   6.672E+00
   18.200   6.472E+00
   18.300   6.280E+00
   18.400   6.094E+00
   18.500   5.915E+00
   18.600   5.742E+00
   18.700   5.576E+00
   18.800   5.415E+00
   18.900   5.260E+00
   19.000   5.111E+00
   19.100   4.968E+00
   19.200   4.829E+00
   19.300   4.696E+00
   19.400   4.568E+00
   19.500   4.444E+00
   19.600   4.325E+00
   19.700   4.211E+00
   19.800   4.100E+00
   19.900   3.994E+00
   20.000   3.892E+00
   20.100   3.793E+00
   20.200   3.698E+00
   20.300   3.606E+00
   20.400   3.518E+00
   20.500   3.433E+00
   20.600   3.351E+00
   20.700   3.272E+00
   20.800   3.196E+00
   20.900   3.122E+00
   21.000   3.051E+00
   21.100   2.983E+00
   21.200   2.917E+00
   21.300   2.853E+00
   21.400   2.791E+00
   21.500   2.731E+00
   21.600   2.673E+00
   21.700   2.617E+00
   21.800   2.563E+00
   21.900   2.511E+00
   22.000   2.460E+00
   22.100   2.411E+00
   22.200   2.363E+00
   22.300   2.317E+00
   22.400   2.273E+00
   22.500   2.229E+00
   22.600   2.187E+00
   22.700   2.147E+00
   22.800   2.107E+00
   22.900   2.069E+00
   23.000   2.031E+00
   23.100   1.995E+00
   23.200   1.960E+00
   23.300   1.925E+00
   23.400   1.892E+00
   23.500   1.860E+00
   23.600   1.828E+00
   23.700   1.798E+00
   23.800   1.768E+00
   23.900   1.739E+00
   24.000   1.710E+00
   24.100   1.683E+00
   24.200   1.656E+00
   24.300   1.630E+00
   24.400   1.604E+00
   24.500   1.579E+00
   24.600   1.555E+00
   24.700   1.531E+00
   24.800   1.508E+00
   24.900   1.486E+00
   25.000   1.464E+00
   25.100   1.442E+00
   25.200   1.421E+00
   25.300   1.401E+00
   25.400   1.381E+00
   25.500   1.361E+00
   25.600   1.342E+00
   25.700   1.323E+00
   25.800   1.305E+00
   25.900   1.287E+00
   26.000   1.270E+00
   26.100   1.253E+00
   26.200   1.236E+00
   26.300   1.220E+00
   26.400   1.204E+00
   26.500   1.188E+00
   26.600   1.172E+00
   26.700   1.157E+00
   26.800   1.143E+00
   26.900   1.128E+00
   27.000   1.114E+00
   27.100   1.100E+00
   27.200   1.087E+00
   27.300   1.073E+00
   27.400   1.060E+00
   27.500   1.047E+00
   27.600   1.035E+00
   27.700   1.023E+00
   27.800   1.011E+00
   27.900   9.987E-01
   28.000   9.871E-01
   28.100   9.757E-01
   28.200   9.645E-01
   28.300   9.535E-01
   28.400   9.427E-01
   28.500   9.321E-01
   28.600   9.217E-01
   28.700   9.115E-01
   28.800   9.014E-01
   28.900   8.916E-01
   29.000   8.819E-01
   29.100   8.724E-01
   29.200   8.630E-01
   29.300   8.538E-01
   29.400   8.448E-01
   29.500   8.359E-01
   29.600   8.271E-01
   29.700   8.186E-01
   29.800   8.101E-01
   29.900   8.018E-01
   30.000   7.936E-01
 
 Z=  51 A= 139  D1M-QRPA-Inter
 E[MeV]  fQRPA[mb/MeV]
    0.100   1.749E-04
    0.200   6.997E-04
    0.300   1.575E-03
    0.400   2.803E-03
    0.500   4.384E-03
    0.600   6.322E-03
    0.700   8.618E-03
    0.800   1.128E-02
    0.900   1.430E-02
    1.000   1.770E-02
    1.100   2.147E-02
    1.200   2.562E-02
    1.300   3.015E-02
    1.400   3.508E-02
    1.500   4.041E-02
    1.600   4.615E-02
    1.700   5.230E-02
    1.800   5.888E-02
    1.900   6.589E-02
    2.000   7.335E-02
    2.100   8.126E-02
    2.200   8.964E-02
    2.300   9.850E-02
    2.400   1.079E-01
    2.500   1.177E-01
    2.600   1.281E-01
    2.700   1.390E-01
    2.800   1.505E-01
    2.900   1.626E-01
    3.000   1.753E-01
    3.100   1.886E-01
    3.200   2.025E-01
    3.300   2.172E-01
    3.400   2.325E-01
    3.500   2.485E-01
    3.600   2.653E-01
    3.700   2.829E-01
    3.800   3.014E-01
    3.900   3.207E-01
    4.000   3.408E-01
    4.100   3.620E-01
    4.200   3.841E-01
    4.300   4.072E-01
    4.400   4.314E-01
    4.500   4.567E-01
    4.600   4.832E-01
    4.700   5.109E-01
    4.800   5.399E-01
    4.900   5.702E-01
    5.000   6.020E-01
    5.100   6.351E-01
    5.200   6.699E-01
    5.300   7.062E-01
    5.400   7.442E-01
    5.500   7.839E-01
    5.600   8.254E-01
    5.700   8.688E-01
    5.800   9.141E-01
    5.900   9.615E-01
    6.000   1.011E+00
    6.100   1.063E+00
    6.200   1.116E+00
    6.300   1.173E+00
    6.400   1.231E+00
    6.500   1.292E+00
    6.600   1.355E+00
    6.700   1.421E+00
    6.800   1.489E+00
    6.900   1.560E+00
    7.000   1.633E+00
    7.100   1.709E+00
    7.200   1.788E+00
    7.300   1.868E+00
    7.400   1.952E+00
    7.500   2.037E+00
    7.600   2.126E+00
    7.700   2.216E+00
    7.800   2.310E+00
    7.900   2.405E+00
    8.000   2.503E+00
    8.100   2.604E+00
    8.200   2.708E+00
    8.300   2.814E+00
    8.400   2.924E+00
    8.500   3.037E+00
    8.600   3.153E+00
    8.700   3.274E+00
    8.800   3.399E+00
    8.900   3.528E+00
    9.000   3.662E+00
    9.100   3.802E+00
    9.200   3.948E+00
    9.300   4.099E+00
    9.400   4.258E+00
    9.500   4.424E+00
    9.600   4.598E+00
    9.700   4.780E+00
    9.800   4.971E+00
    9.900   5.171E+00
   10.000   5.381E+00
   10.100   5.601E+00
   10.200   5.832E+00
   10.300   6.073E+00
   10.400   6.327E+00
   10.500   6.593E+00
   10.600   6.871E+00
   10.700   7.162E+00
   10.800   7.466E+00
   10.900   7.783E+00
   11.000   8.115E+00
   11.100   8.460E+00
   11.200   8.819E+00
   11.300   9.192E+00
   11.400   9.578E+00
   11.500   9.978E+00
   11.600   1.039E+01
   11.700   1.081E+01
   11.800   1.125E+01
   11.900   1.169E+01
   12.000   1.215E+01
   12.100   1.261E+01
   12.200   1.307E+01
   12.300   1.354E+01
   12.400   1.400E+01
   12.500   1.446E+01
   12.600   1.492E+01
   12.700   1.536E+01
   12.800   1.579E+01
   12.900   1.620E+01
   13.000   1.659E+01
   13.100   1.696E+01
   13.200   1.730E+01
   13.300   1.760E+01
   13.400   1.788E+01
   13.500   1.811E+01
   13.600   1.831E+01
   13.700   1.847E+01
   13.800   1.859E+01
   13.900   1.866E+01
   14.000   1.869E+01
   14.100   1.868E+01
   14.200   1.863E+01
   14.300   1.855E+01
   14.400   1.842E+01
   14.500   1.825E+01
   14.600   1.806E+01
   14.700   1.783E+01
   14.800   1.757E+01
   14.900   1.729E+01
   15.000   1.699E+01
   15.100   1.666E+01
   15.200   1.632E+01
   15.300   1.597E+01
   15.400   1.560E+01
   15.500   1.523E+01
   15.600   1.485E+01
   15.700   1.447E+01
   15.800   1.409E+01
   15.900   1.371E+01
   16.000   1.333E+01
   16.100   1.296E+01
   16.200   1.259E+01
   16.300   1.222E+01
   16.400   1.187E+01
   16.500   1.152E+01
   16.600   1.118E+01
   16.700   1.085E+01
   16.800   1.052E+01
   16.900   1.021E+01
   17.000   9.901E+00
   17.100   9.604E+00
   17.200   9.316E+00
   17.300   9.037E+00
   17.400   8.766E+00
   17.500   8.504E+00
   17.600   8.251E+00
   17.700   8.006E+00
   17.800   7.770E+00
   17.900   7.541E+00
   18.000   7.320E+00
   18.100   7.107E+00
   18.200   6.902E+00
   18.300   6.704E+00
   18.400   6.513E+00
   18.500   6.328E+00
   18.600   6.151E+00
   18.700   5.980E+00
   18.800   5.815E+00
   18.900   5.656E+00
   19.000   5.503E+00
   19.100   5.355E+00
   19.200   5.213E+00
   19.300   5.076E+00
   19.400   4.944E+00
   19.500   4.817E+00
   19.600   4.695E+00
   19.700   4.577E+00
   19.800   4.463E+00
   19.900   4.353E+00
   20.000   4.248E+00
   20.100   4.146E+00
   20.200   4.048E+00
   20.300   3.953E+00
   20.400   3.861E+00
   20.500   3.773E+00
   20.600   3.688E+00
   20.700   3.605E+00
   20.800   3.526E+00
   20.900   3.449E+00
   21.000   3.374E+00
   21.100   3.302E+00
   21.200   3.233E+00
   21.300   3.165E+00
   21.400   3.100E+00
   21.500   3.037E+00
   21.600   2.976E+00
   21.700   2.917E+00
   21.800   2.860E+00
   21.900   2.804E+00
   22.000   2.750E+00
   22.100   2.698E+00
   22.200   2.647E+00
   22.300   2.598E+00
   22.400   2.550E+00
   22.500   2.504E+00
   22.600   2.459E+00
   22.700   2.415E+00
   22.800   2.372E+00
   22.900   2.331E+00
   23.000   2.290E+00
   23.100   2.251E+00
   23.200   2.213E+00
   23.300   2.176E+00
   23.400   2.140E+00
   23.500   2.105E+00
   23.600   2.071E+00
   23.700   2.037E+00
   23.800   2.005E+00
   23.900   1.973E+00
   24.000   1.942E+00
   24.100   1.912E+00
   24.200   1.883E+00
   24.300   1.854E+00
   24.400   1.826E+00
   24.500   1.799E+00
   24.600   1.772E+00
   24.700   1.746E+00
   24.800   1.721E+00
   24.900   1.696E+00
   25.000   1.672E+00
   25.100   1.648E+00
   25.200   1.625E+00
   25.300   1.602E+00
   25.400   1.580E+00
   25.500   1.558E+00
   25.600   1.537E+00
   25.700   1.516E+00
   25.800   1.496E+00
   25.900   1.476E+00
   26.000   1.457E+00
   26.100   1.438E+00
   26.200   1.419E+00
   26.300   1.401E+00
   26.400   1.383E+00
   26.500   1.366E+00
   26.600   1.349E+00
   26.700   1.332E+00
   26.800   1.315E+00
   26.900   1.299E+00
   27.000   1.283E+00
   27.100   1.268E+00
   27.200   1.253E+00
   27.300   1.238E+00
   27.400   1.223E+00
   27.500   1.209E+00
   27.600   1.195E+00
   27.700   1.181E+00
   27.800   1.167E+00
   27.900   1.154E+00
   28.000   1.141E+00
   28.100   1.128E+00
   28.200   1.115E+00
   28.300   1.103E+00
   28.400   1.091E+00
   28.500   1.079E+00
   28.600   1.067E+00
   28.700   1.056E+00
   28.800   1.044E+00
   28.900   1.033E+00
   29.000   1.022E+00
   29.100   1.011E+00
   29.200   1.001E+00
   29.300   9.904E-01
   29.400   9.802E-01
   29.500   9.701E-01
   29.600   9.602E-01
   29.700   9.505E-01
   29.800   9.409E-01
   29.900   9.314E-01
   30.000   9.222E-01
 
 Z=  51 A= 140  D1M-QRPA-Inter
 E[MeV]  fQRPA[mb/MeV]
    0.100   4.154E-04
    0.200   1.235E-03
    0.300   2.359E-03
    0.400   3.762E-03
    0.500   5.438E-03
    0.600   7.390E-03
    0.700   9.629E-03
    0.800   1.216E-02
    0.900   1.500E-02
    1.000   1.816E-02
    1.100   2.165E-02
    1.200   2.548E-02
    1.300   2.966E-02
    1.400   3.422E-02
    1.500   3.916E-02
    1.600   4.451E-02
    1.700   5.027E-02
    1.800   5.648E-02
    1.900   6.314E-02
    2.000   7.028E-02
    2.100   7.792E-02
    2.200   8.609E-02
    2.300   9.483E-02
    2.400   1.042E-01
    2.500   1.141E-01
    2.600   1.247E-01
    2.700   1.360E-01
    2.800   1.481E-01
    2.900   1.610E-01
    3.000   1.748E-01
    3.100   1.895E-01
    3.200   2.051E-01
    3.300   2.219E-01
    3.400   2.397E-01
    3.500   2.588E-01
    3.600   2.792E-01
    3.700   3.010E-01
    3.800   3.242E-01
    3.900   3.490E-01
    4.000   3.754E-01
    4.100   4.036E-01
    4.200   4.335E-01
    4.300   4.653E-01
    4.400   4.990E-01
    4.500   5.345E-01
    4.600   5.719E-01
    4.700   6.110E-01
    4.800   6.518E-01
    4.900   6.939E-01
    5.000   7.372E-01
    5.100   7.813E-01
    5.200   8.259E-01
    5.300   8.706E-01
    5.400   9.150E-01
    5.500   9.589E-01
    5.600   1.002E+00
    5.700   1.044E+00
    5.800   1.085E+00
    5.900   1.126E+00
    6.000   1.165E+00
    6.100   1.204E+00
    6.200   1.243E+00
    6.300   1.281E+00
    6.400   1.320E+00
    6.500   1.359E+00
    6.600   1.399E+00
    6.700   1.440E+00
    6.800   1.483E+00
    6.900   1.527E+00
    7.000   1.574E+00
    7.100   1.623E+00
    7.200   1.674E+00
    7.300   1.729E+00
    7.400   1.786E+00
    7.500   1.846E+00
    7.600   1.909E+00
    7.700   1.976E+00
    7.800   2.046E+00
    7.900   2.120E+00
    8.000   2.198E+00
    8.100   2.279E+00
    8.200   2.364E+00
    8.300   2.453E+00
    8.400   2.546E+00
    8.500   2.643E+00
    8.600   2.743E+00
    8.700   2.848E+00
    8.800   2.956E+00
    8.900   3.067E+00
    9.000   3.183E+00
    9.100   3.302E+00
    9.200   3.425E+00
    9.300   3.552E+00
    9.400   3.683E+00
    9.500   3.819E+00
    9.600   3.961E+00
    9.700   4.109E+00
    9.800   4.264E+00
    9.900   4.426E+00
   10.000   4.598E+00
   10.100   4.780E+00
   10.200   4.974E+00
   10.300   5.180E+00
   10.400   5.399E+00
   10.500   5.633E+00
   10.600   5.883E+00
   10.700   6.148E+00
   10.800   6.431E+00
   10.900   6.731E+00
   11.000   7.050E+00
   11.100   7.387E+00
   11.200   7.743E+00
   11.300   8.117E+00
   11.400   8.510E+00
   11.500   8.921E+00
   11.600   9.348E+00
   11.700   9.790E+00
   11.800   1.025E+01
   11.900   1.071E+01
   12.000   1.119E+01
   12.100   1.167E+01
   12.200   1.215E+01
   12.300   1.264E+01
   12.400   1.311E+01
   12.500   1.357E+01
   12.600   1.402E+01
   12.700   1.445E+01
   12.800   1.485E+01
   12.900   1.522E+01
   13.000   1.555E+01
   13.100   1.585E+01
   13.200   1.611E+01
   13.300   1.632E+01
   13.400   1.649E+01
   13.500   1.661E+01
   13.600   1.668E+01
   13.700   1.671E+01
   13.800   1.669E+01
   13.900   1.662E+01
   14.000   1.651E+01
   14.100   1.637E+01
   14.200   1.619E+01
   14.300   1.599E+01
   14.400   1.576E+01
   14.500   1.551E+01
   14.600   1.525E+01
   14.700   1.498E+01
   14.800   1.470E+01
   14.900   1.441E+01
   15.000   1.412E+01
   15.100   1.383E+01
   15.200   1.354E+01
   15.300   1.325E+01
   15.400   1.296E+01
   15.500   1.266E+01
   15.600   1.237E+01
   15.700   1.207E+01
   15.800   1.177E+01
   15.900   1.148E+01
   16.000   1.118E+01
   16.100   1.089E+01
   16.200   1.060E+01
   16.300   1.031E+01
   16.400   1.003E+01
   16.500   9.747E+00
   16.600   9.475E+00
   16.700   9.209E+00
   16.800   8.952E+00
   16.900   8.704E+00
   17.000   8.465E+00
   17.100   8.236E+00
   17.200   8.018E+00
   17.300   7.811E+00
   17.400   7.613E+00
   17.500   7.425E+00
   17.600   7.246E+00
   17.700   7.074E+00
   17.800   6.909E+00
   17.900   6.749E+00
   18.000   6.593E+00
   18.100   6.440E+00
   18.200   6.290E+00
   18.300   6.141E+00
   18.400   5.994E+00
   18.500   5.848E+00
   18.600   5.703E+00
   18.700   5.559E+00
   18.800   5.417E+00
   18.900   5.278E+00
   19.000   5.140E+00
   19.100   5.006E+00
   19.200   4.875E+00
   19.300   4.748E+00
   19.400   4.625E+00
   19.500   4.507E+00
   19.600   4.392E+00
   19.700   4.282E+00
   19.800   4.176E+00
   19.900   4.074E+00
   20.000   3.977E+00
   20.100   3.883E+00
   20.200   3.794E+00
   20.300   3.709E+00
   20.400   3.627E+00
   20.500   3.549E+00
   20.600   3.474E+00
   20.700   3.401E+00
   20.800   3.331E+00
   20.900   3.263E+00
   21.000   3.197E+00
   21.100   3.132E+00
   21.200   3.069E+00
   21.300   3.007E+00
   21.400   2.945E+00
   21.500   2.885E+00
   21.600   2.826E+00
   21.700   2.767E+00
   21.800   2.709E+00
   21.900   2.651E+00
   22.000   2.594E+00
   22.100   2.538E+00
   22.200   2.482E+00
   22.300   2.426E+00
   22.400   2.371E+00
   22.500   2.317E+00
   22.600   2.264E+00
   22.700   2.212E+00
   22.800   2.161E+00
   22.900   2.111E+00
   23.000   2.062E+00
   23.100   2.015E+00
   23.200   1.968E+00
   23.300   1.923E+00
   23.400   1.879E+00
   23.500   1.836E+00
   23.600   1.795E+00
   23.700   1.754E+00
   23.800   1.716E+00
   23.900   1.678E+00
   24.000   1.641E+00
   24.100   1.606E+00
   24.200   1.572E+00
   24.300   1.539E+00
   24.400   1.507E+00
   24.500   1.476E+00
   24.600   1.446E+00
   24.700   1.418E+00
   24.800   1.390E+00
   24.900   1.363E+00
   25.000   1.337E+00
   25.100   1.312E+00
   25.200   1.288E+00
   25.300   1.264E+00
   25.400   1.242E+00
   25.500   1.219E+00
   25.600   1.198E+00
   25.700   1.177E+00
   25.800   1.157E+00
   25.900   1.137E+00
   26.000   1.117E+00
   26.100   1.098E+00
   26.200   1.080E+00
   26.300   1.062E+00
   26.400   1.044E+00
   26.500   1.027E+00
   26.600   1.010E+00
   26.700   9.934E-01
   26.800   9.774E-01
   26.900   9.618E-01
   27.000   9.467E-01
   27.100   9.320E-01
   27.200   9.178E-01
   27.300   9.039E-01
   27.400   8.904E-01
   27.500   8.773E-01
   27.600   8.646E-01
   27.700   8.522E-01
   27.800   8.402E-01
   27.900   8.285E-01
   28.000   8.171E-01
   28.100   8.060E-01
   28.200   7.952E-01
   28.300   7.847E-01
   28.400   7.744E-01
   28.500   7.644E-01
   28.600   7.546E-01
   28.700   7.451E-01
   28.800   7.357E-01
   28.900   7.266E-01
   29.000   7.177E-01
   29.100   7.090E-01
   29.200   7.005E-01
   29.300   6.922E-01
   29.400   6.840E-01
   29.500   6.761E-01
   29.600   6.682E-01
   29.700   6.606E-01
   29.800   6.531E-01
   29.900   6.457E-01
   30.000   6.385E-01
 
 Z=  51 A= 141  D1M-QRPA-Inter
 E[MeV]  fQRPA[mb/MeV]
    0.100   1.297E-03
    0.200   2.865E-03
    0.300   4.645E-03
    0.400   6.637E-03
    0.500   8.866E-03
    0.600   1.136E-02
    0.700   1.414E-02
    0.800   1.724E-02
    0.900   2.069E-02
    1.000   2.450E-02
    1.100   2.869E-02
    1.200   3.331E-02
    1.300   3.836E-02
    1.400   4.388E-02
    1.500   4.990E-02
    1.600   5.644E-02
    1.700   6.353E-02
    1.800   7.122E-02
    1.900   7.954E-02
    2.000   8.852E-02
    2.100   9.823E-02
    2.200   1.087E-01
    2.300   1.200E-01
    2.400   1.322E-01
    2.500   1.454E-01
    2.600   1.596E-01
    2.700   1.750E-01
    2.800   1.916E-01
    2.900   2.096E-01
    3.000   2.291E-01
    3.100   2.503E-01
    3.200   2.732E-01
    3.300   2.980E-01
    3.400   3.250E-01
    3.500   3.544E-01
    3.600   3.862E-01
    3.700   4.209E-01
    3.800   4.585E-01
    3.900   4.993E-01
    4.000   5.436E-01
    4.100   5.915E-01
    4.200   6.433E-01
    4.300   6.990E-01
    4.400   7.587E-01
    4.500   8.224E-01
    4.600   8.899E-01
    4.700   9.607E-01
    4.800   1.034E+00
    4.900   1.110E+00
    5.000   1.187E+00
    5.100   1.263E+00
    5.200   1.339E+00
    5.300   1.411E+00
    5.400   1.479E+00
    5.500   1.542E+00
    5.600   1.599E+00
    5.700   1.650E+00
    5.800   1.695E+00
    5.900   1.733E+00
    6.000   1.766E+00
    6.100   1.794E+00
    6.200   1.819E+00
    6.300   1.840E+00
    6.400   1.860E+00
    6.500   1.879E+00
    6.600   1.899E+00
    6.700   1.919E+00
    6.800   1.941E+00
    6.900   1.966E+00
    7.000   1.994E+00
    7.100   2.026E+00
    7.200   2.062E+00
    7.300   2.103E+00
    7.400   2.148E+00
    7.500   2.199E+00
    7.600   2.255E+00
    7.700   2.316E+00
    7.800   2.384E+00
    7.900   2.457E+00
    8.000   2.537E+00
    8.100   2.622E+00
    8.200   2.714E+00
    8.300   2.811E+00
    8.400   2.915E+00
    8.500   3.024E+00
    8.600   3.137E+00
    8.700   3.256E+00
    8.800   3.379E+00
    8.900   3.506E+00
    9.000   3.636E+00
    9.100   3.770E+00
    9.200   3.906E+00
    9.300   4.045E+00
    9.400   4.188E+00
    9.500   4.334E+00
    9.600   4.486E+00
    9.700   4.643E+00
    9.800   4.808E+00
    9.900   4.981E+00
   10.000   5.166E+00
   10.100   5.364E+00
   10.200   5.577E+00
   10.300   5.808E+00
   10.400   6.057E+00
   10.500   6.328E+00
   10.600   6.621E+00
   10.700   6.939E+00
   10.800   7.283E+00
   10.900   7.654E+00
   11.000   8.052E+00
   11.100   8.480E+00
   11.200   8.937E+00
   11.300   9.424E+00
   11.400   9.940E+00
   11.500   1.048E+01
   11.600   1.106E+01
   11.700   1.165E+01
   11.800   1.227E+01
   11.900   1.290E+01
   12.000   1.355E+01
   12.100   1.421E+01
   12.200   1.486E+01
   12.300   1.551E+01
   12.400   1.614E+01
   12.500   1.675E+01
   12.600   1.732E+01
   12.700   1.786E+01
   12.800   1.835E+01
   12.900   1.879E+01
   13.000   1.916E+01
   13.100   1.948E+01
   13.200   1.972E+01
   13.300   1.990E+01
   13.400   2.000E+01
   13.500   2.003E+01
   13.600   1.998E+01
   13.700   1.987E+01
   13.800   1.969E+01
   13.900   1.946E+01
   14.000   1.918E+01
   14.100   1.885E+01
   14.200   1.850E+01
   14.300   1.812E+01
   14.400   1.773E+01
   14.500   1.733E+01
   14.600   1.693E+01
   14.700   1.654E+01
   14.800   1.616E+01
   14.900   1.579E+01
   15.000   1.544E+01
   15.100   1.510E+01
   15.200   1.477E+01
   15.300   1.446E+01
   15.400   1.414E+01
   15.500   1.384E+01
   15.600   1.354E+01
   15.700   1.324E+01
   15.800   1.293E+01
   15.900   1.263E+01
   16.000   1.233E+01
   16.100   1.203E+01
   16.200   1.173E+01
   16.300   1.143E+01
   16.400   1.113E+01
   16.500   1.084E+01
   16.600   1.056E+01
   16.700   1.028E+01
   16.800   1.001E+01
   16.900   9.757E+00
   17.000   9.514E+00
   17.100   9.286E+00
   17.200   9.073E+00
   17.300   8.875E+00
   17.400   8.692E+00
   17.500   8.523E+00
   17.600   8.366E+00
   17.700   8.218E+00
   17.800   8.077E+00
   17.900   7.941E+00
   18.000   7.807E+00
   18.100   7.672E+00
   18.200   7.536E+00
   18.300   7.396E+00
   18.400   7.252E+00
   18.500   7.104E+00
   18.600   6.951E+00
   18.700   6.794E+00
   18.800   6.635E+00
   18.900   6.474E+00
   19.000   6.313E+00
   19.100   6.153E+00
   19.200   5.995E+00
   19.300   5.840E+00
   19.400   5.689E+00
   19.500   5.543E+00
   19.600   5.402E+00
   19.700   5.266E+00
   19.800   5.137E+00
   19.900   5.013E+00
   20.000   4.895E+00
   20.100   4.782E+00
   20.200   4.676E+00
   20.300   4.575E+00
   20.400   4.480E+00
   20.500   4.389E+00
   20.600   4.302E+00
   20.700   4.219E+00
   20.800   4.138E+00
   20.900   4.060E+00
   21.000   3.982E+00
   21.100   3.906E+00
   21.200   3.830E+00
   21.300   3.754E+00
   21.400   3.679E+00
   21.500   3.603E+00
   21.600   3.527E+00
   21.700   3.451E+00
   21.800   3.374E+00
   21.900   3.296E+00
   22.000   3.217E+00
   22.100   3.138E+00
   22.200   3.058E+00
   22.300   2.979E+00
   22.400   2.899E+00
   22.500   2.820E+00
   22.600   2.742E+00
   22.700   2.664E+00
   22.800   2.588E+00
   22.900   2.514E+00
   23.000   2.441E+00
   23.100   2.370E+00
   23.200   2.301E+00
   23.300   2.234E+00
   23.400   2.169E+00
   23.500   2.106E+00
   23.600   2.045E+00
   23.700   1.986E+00
   23.800   1.930E+00
   23.900   1.876E+00
   24.000   1.823E+00
   24.100   1.773E+00
   24.200   1.725E+00
   24.300   1.679E+00
   24.400   1.635E+00
   24.500   1.592E+00
   24.600   1.552E+00
   24.700   1.513E+00
   24.800   1.476E+00
   24.900   1.440E+00
   25.000   1.406E+00
   25.100   1.373E+00
   25.200   1.342E+00
   25.300   1.312E+00
   25.400   1.283E+00
   25.500   1.254E+00
   25.600   1.227E+00
   25.700   1.201E+00
   25.800   1.175E+00
   25.900   1.150E+00
   26.000   1.126E+00
   26.100   1.103E+00
   26.200   1.080E+00
   26.300   1.057E+00
   26.400   1.036E+00
   26.500   1.014E+00
   26.600   9.940E-01
   26.700   9.741E-01
   26.800   9.548E-01
   26.900   9.361E-01
   27.000   9.181E-01
   27.100   9.008E-01
   27.200   8.840E-01
   27.300   8.678E-01
   27.400   8.522E-01
   27.500   8.372E-01
   27.600   8.226E-01
   27.700   8.086E-01
   27.800   7.951E-01
   27.900   7.820E-01
   28.000   7.694E-01
   28.100   7.572E-01
   28.200   7.453E-01
   28.300   7.339E-01
   28.400   7.228E-01
   28.500   7.120E-01
   28.600   7.015E-01
   28.700   6.913E-01
   28.800   6.815E-01
   28.900   6.719E-01
   29.000   6.625E-01
   29.100   6.535E-01
   29.200   6.446E-01
   29.300   6.360E-01
   29.400   6.276E-01
   29.500   6.194E-01
   29.600   6.114E-01
   29.700   6.036E-01
   29.800   5.960E-01
   29.900   5.885E-01
   30.000   5.813E-01
 
