 Z=  53 A= 127  D1M-QRPA-Inter
 E[MeV]  fQRPA[mb/MeV]
    0.100   1.792E-04
    0.200   7.145E-04
    0.300   1.599E-03
    0.400   2.824E-03
    0.500   4.374E-03
    0.600   6.235E-03
    0.700   8.389E-03
    0.800   1.082E-02
    0.900   1.352E-02
    1.000   1.646E-02
    1.100   1.964E-02
    1.200   2.304E-02
    1.300   2.667E-02
    1.400   3.051E-02
    1.500   3.456E-02
    1.600   3.883E-02
    1.700   4.331E-02
    1.800   4.801E-02
    1.900   5.293E-02
    2.000   5.809E-02
    2.100   6.349E-02
    2.200   6.914E-02
    2.300   7.506E-02
    2.400   8.124E-02
    2.500   8.771E-02
    2.600   9.448E-02
    2.700   1.016E-01
    2.800   1.090E-01
    2.900   1.167E-01
    3.000   1.248E-01
    3.100   1.333E-01
    3.200   1.421E-01
    3.300   1.514E-01
    3.400   1.611E-01
    3.500   1.712E-01
    3.600   1.817E-01
    3.700   1.927E-01
    3.800   2.043E-01
    3.900   2.163E-01
    4.000   2.288E-01
    4.100   2.420E-01
    4.200   2.556E-01
    4.300   2.699E-01
    4.400   2.848E-01
    4.500   3.004E-01
    4.600   3.166E-01
    4.700   3.336E-01
    4.800   3.513E-01
    4.900   3.697E-01
    5.000   3.890E-01
    5.100   4.091E-01
    5.200   4.301E-01
    5.300   4.520E-01
    5.400   4.749E-01
    5.500   4.988E-01
    5.600   5.237E-01
    5.700   5.497E-01
    5.800   5.769E-01
    5.900   6.052E-01
    6.000   6.348E-01
    6.100   6.657E-01
    6.200   6.979E-01
    6.300   7.315E-01
    6.400   7.666E-01
    6.500   8.033E-01
    6.600   8.415E-01
    6.700   8.813E-01
    6.800   9.229E-01
    6.900   9.663E-01
    7.000   1.011E+00
    7.100   1.059E+00
    7.200   1.108E+00
    7.300   1.159E+00
    7.400   1.212E+00
    7.500   1.268E+00
    7.600   1.325E+00
    7.700   1.385E+00
    7.800   1.448E+00
    7.900   1.513E+00
    8.000   1.581E+00
    8.100   1.651E+00
    8.200   1.724E+00
    8.300   1.800E+00
    8.400   1.880E+00
    8.500   1.962E+00
    8.600   2.048E+00
    8.700   2.138E+00
    8.800   2.231E+00
    8.900   2.328E+00
    9.000   2.430E+00
    9.100   2.535E+00
    9.200   2.646E+00
    9.300   2.761E+00
    9.400   2.882E+00
    9.500   3.008E+00
    9.600   3.139E+00
    9.700   3.277E+00
    9.800   3.421E+00
    9.900   3.572E+00
   10.000   3.730E+00
   10.100   3.895E+00
   10.200   4.068E+00
   10.300   4.249E+00
   10.400   4.439E+00
   10.500   4.638E+00
   10.600   4.846E+00
   10.700   5.063E+00
   10.800   5.292E+00
   10.900   5.530E+00
   11.000   5.781E+00
   11.100   6.043E+00
   11.200   6.317E+00
   11.300   6.604E+00
   11.400   6.904E+00
   11.500   7.219E+00
   11.600   7.548E+00
   11.700   7.892E+00
   11.800   8.252E+00
   11.900   8.628E+00
   12.000   9.020E+00
   12.100   9.429E+00
   12.200   9.855E+00
   12.300   1.030E+01
   12.400   1.075E+01
   12.500   1.123E+01
   12.600   1.172E+01
   12.700   1.222E+01
   12.800   1.273E+01
   12.900   1.325E+01
   13.000   1.378E+01
   13.100   1.431E+01
   13.200   1.484E+01
   13.300   1.537E+01
   13.400   1.589E+01
   13.500   1.640E+01
   13.600   1.689E+01
   13.700   1.736E+01
   13.800   1.781E+01
   13.900   1.822E+01
   14.000   1.860E+01
   14.100   1.894E+01
   14.200   1.924E+01
   14.300   1.950E+01
   14.400   1.971E+01
   14.500   1.987E+01
   14.600   1.998E+01
   14.700   2.005E+01
   14.800   2.006E+01
   14.900   2.002E+01
   15.000   1.994E+01
   15.100   1.981E+01
   15.200   1.964E+01
   15.300   1.943E+01
   15.400   1.917E+01
   15.500   1.888E+01
   15.600   1.856E+01
   15.700   1.820E+01
   15.800   1.782E+01
   15.900   1.742E+01
   16.000   1.700E+01
   16.100   1.657E+01
   16.200   1.612E+01
   16.300   1.567E+01
   16.400   1.521E+01
   16.500   1.475E+01
   16.600   1.429E+01
   16.700   1.384E+01
   16.800   1.339E+01
   16.900   1.294E+01
   17.000   1.251E+01
   17.100   1.209E+01
   17.200   1.167E+01
   17.300   1.127E+01
   17.400   1.088E+01
   17.500   1.050E+01
   17.600   1.014E+01
   17.700   9.788E+00
   17.800   9.449E+00
   17.900   9.122E+00
   18.000   8.809E+00
   18.100   8.508E+00
   18.200   8.219E+00
   18.300   7.942E+00
   18.400   7.676E+00
   18.500   7.422E+00
   18.600   7.179E+00
   18.700   6.945E+00
   18.800   6.722E+00
   18.900   6.509E+00
   19.000   6.304E+00
   19.100   6.109E+00
   19.200   5.922E+00
   19.300   5.743E+00
   19.400   5.571E+00
   19.500   5.407E+00
   19.600   5.249E+00
   19.700   5.099E+00
   19.800   4.954E+00
   19.900   4.816E+00
   20.000   4.683E+00
   20.100   4.556E+00
   20.200   4.433E+00
   20.300   4.316E+00
   20.400   4.203E+00
   20.500   4.095E+00
   20.600   3.991E+00
   20.700   3.890E+00
   20.800   3.794E+00
   20.900   3.701E+00
   21.000   3.612E+00
   21.100   3.526E+00
   21.200   3.443E+00
   21.300   3.363E+00
   21.400   3.286E+00
   21.500   3.212E+00
   21.600   3.140E+00
   21.700   3.071E+00
   21.800   3.004E+00
   21.900   2.939E+00
   22.000   2.877E+00
   22.100   2.816E+00
   22.200   2.758E+00
   22.300   2.701E+00
   22.400   2.647E+00
   22.500   2.594E+00
   22.600   2.542E+00
   22.700   2.493E+00
   22.800   2.444E+00
   22.900   2.398E+00
   23.000   2.352E+00
   23.100   2.308E+00
   23.200   2.265E+00
   23.300   2.224E+00
   23.400   2.184E+00
   23.500   2.145E+00
   23.600   2.107E+00
   23.700   2.070E+00
   23.800   2.034E+00
   23.900   1.999E+00
   24.000   1.965E+00
   24.100   1.932E+00
   24.200   1.900E+00
   24.300   1.868E+00
   24.400   1.838E+00
   24.500   1.808E+00
   24.600   1.779E+00
   24.700   1.751E+00
   24.800   1.723E+00
   24.900   1.696E+00
   25.000   1.670E+00
   25.100   1.645E+00
   25.200   1.620E+00
   25.300   1.595E+00
   25.400   1.572E+00
   25.500   1.549E+00
   25.600   1.526E+00
   25.700   1.504E+00
   25.800   1.482E+00
   25.900   1.461E+00
   26.000   1.441E+00
   26.100   1.420E+00
   26.200   1.401E+00
   26.300   1.382E+00
   26.400   1.363E+00
   26.500   1.344E+00
   26.600   1.326E+00
   26.700   1.309E+00
   26.800   1.291E+00
   26.900   1.274E+00
   27.000   1.258E+00
   27.100   1.242E+00
   27.200   1.226E+00
   27.300   1.210E+00
   27.400   1.195E+00
   27.500   1.180E+00
   27.600   1.165E+00
   27.700   1.151E+00
   27.800   1.137E+00
   27.900   1.123E+00
   28.000   1.110E+00
   28.100   1.097E+00
   28.200   1.084E+00
   28.300   1.071E+00
   28.400   1.058E+00
   28.500   1.046E+00
   28.600   1.034E+00
   28.700   1.022E+00
   28.800   1.010E+00
   28.900   9.991E-01
   29.000   9.879E-01
   29.100   9.769E-01
   29.200   9.661E-01
   29.300   9.555E-01
   29.400   9.451E-01
   29.500   9.348E-01
   29.600   9.248E-01
   29.700   9.149E-01
   29.800   9.052E-01
   29.900   8.956E-01
   30.000   8.862E-01
 
 Z=  53 A= 128  D1M-QRPA-Inter
 E[MeV]  fQRPA[mb/MeV]
    0.100   9.434E-05
    0.200   3.768E-04
    0.300   8.459E-04
    0.400   1.499E-03
    0.500   2.333E-03
    0.600   3.345E-03
    0.700   4.530E-03
    0.800   5.885E-03
    0.900   7.405E-03
    1.000   9.088E-03
    1.100   1.093E-02
    1.200   1.293E-02
    1.300   1.509E-02
    1.400   1.741E-02
    1.500   1.988E-02
    1.600   2.251E-02
    1.700   2.531E-02
    1.800   2.826E-02
    1.900   3.138E-02
    2.000   3.467E-02
    2.100   3.814E-02
    2.200   4.178E-02
    2.300   4.561E-02
    2.400   4.963E-02
    2.500   5.384E-02
    2.600   5.826E-02
    2.700   6.288E-02
    2.800   6.772E-02
    2.900   7.278E-02
    3.000   7.807E-02
    3.100   8.359E-02
    3.200   8.937E-02
    3.300   9.539E-02
    3.400   1.017E-01
    3.500   1.083E-01
    3.600   1.151E-01
    3.700   1.223E-01
    3.800   1.297E-01
    3.900   1.375E-01
    4.000   1.456E-01
    4.100   1.541E-01
    4.200   1.629E-01
    4.300   1.721E-01
    4.400   1.817E-01
    4.500   1.917E-01
    4.600   2.021E-01
    4.700   2.130E-01
    4.800   2.243E-01
    4.900   2.362E-01
    5.000   2.485E-01
    5.100   2.614E-01
    5.200   2.748E-01
    5.300   2.888E-01
    5.400   3.034E-01
    5.500   3.186E-01
    5.600   3.345E-01
    5.700   3.511E-01
    5.800   3.684E-01
    5.900   3.865E-01
    6.000   4.054E-01
    6.100   4.250E-01
    6.200   4.456E-01
    6.300   4.671E-01
    6.400   4.895E-01
    6.500   5.130E-01
    6.600   5.374E-01
    6.700   5.630E-01
    6.800   5.897E-01
    6.900   6.177E-01
    7.000   6.469E-01
    7.100   6.774E-01
    7.200   7.093E-01
    7.300   7.427E-01
    7.400   7.775E-01
    7.500   8.139E-01
    7.600   8.520E-01
    7.700   8.918E-01
    7.800   9.334E-01
    7.900   9.769E-01
    8.000   1.022E+00
    8.100   1.070E+00
    8.200   1.119E+00
    8.300   1.171E+00
    8.400   1.225E+00
    8.500   1.281E+00
    8.600   1.340E+00
    8.700   1.401E+00
    8.800   1.465E+00
    8.900   1.531E+00
    9.000   1.601E+00
    9.100   1.673E+00
    9.200   1.749E+00
    9.300   1.828E+00
    9.400   1.910E+00
    9.500   1.996E+00
    9.600   2.087E+00
    9.700   2.181E+00
    9.800   2.279E+00
    9.900   2.383E+00
   10.000   2.491E+00
   10.100   2.605E+00
   10.200   2.724E+00
   10.300   2.849E+00
   10.400   2.981E+00
   10.500   3.119E+00
   10.600   3.264E+00
   10.700   3.417E+00
   10.800   3.578E+00
   10.900   3.747E+00
   11.000   3.925E+00
   11.100   4.113E+00
   11.200   4.310E+00
   11.300   4.518E+00
   11.400   4.736E+00
   11.500   4.966E+00
   11.600   5.208E+00
   11.700   5.462E+00
   11.800   5.729E+00
   11.900   6.010E+00
   12.000   6.304E+00
   12.100   6.613E+00
   12.200   6.936E+00
   12.300   7.273E+00
   12.400   7.626E+00
   12.500   7.992E+00
   12.600   8.373E+00
   12.700   8.767E+00
   12.800   9.174E+00
   12.900   9.592E+00
   13.000   1.002E+01
   13.100   1.046E+01
   13.200   1.090E+01
   13.300   1.135E+01
   13.400   1.179E+01
   13.500   1.224E+01
   13.600   1.268E+01
   13.700   1.311E+01
   13.800   1.353E+01
   13.900   1.394E+01
   14.000   1.433E+01
   14.100   1.470E+01
   14.200   1.504E+01
   14.300   1.536E+01
   14.400   1.565E+01
   14.500   1.591E+01
   14.600   1.613E+01
   14.700   1.632E+01
   14.800   1.648E+01
   14.900   1.659E+01
   15.000   1.667E+01
   15.100   1.671E+01
   15.200   1.671E+01
   15.300   1.667E+01
   15.400   1.659E+01
   15.500   1.648E+01
   15.600   1.632E+01
   15.700   1.613E+01
   15.800   1.590E+01
   15.900   1.565E+01
   16.000   1.536E+01
   16.100   1.504E+01
   16.200   1.470E+01
   16.300   1.434E+01
   16.400   1.396E+01
   16.500   1.357E+01
   16.600   1.317E+01
   16.700   1.276E+01
   16.800   1.234E+01
   16.900   1.193E+01
   17.000   1.152E+01
   17.100   1.112E+01
   17.200   1.072E+01
   17.300   1.033E+01
   17.400   9.949E+00
   17.500   9.582E+00
   17.600   9.227E+00
   17.700   8.885E+00
   17.800   8.556E+00
   17.900   8.240E+00
   18.000   7.938E+00
   18.100   7.649E+00
   18.200   7.372E+00
   18.300   7.108E+00
   18.400   6.855E+00
   18.500   6.614E+00
   18.600   6.384E+00
   18.700   6.165E+00
   18.800   5.955E+00
   18.900   5.755E+00
   19.000   5.564E+00
   19.100   5.381E+00
   19.200   5.206E+00
   19.300   5.038E+00
   19.400   4.877E+00
   19.500   4.724E+00
   19.600   4.576E+00
   19.700   4.434E+00
   19.800   4.298E+00
   19.900   4.167E+00
   20.000   4.041E+00
   20.100   3.920E+00
   20.200   3.803E+00
   20.300   3.691E+00
   20.400   3.583E+00
   20.500   3.479E+00
   20.600   3.380E+00
   20.700   3.284E+00
   20.800   3.191E+00
   20.900   3.103E+00
   21.000   3.018E+00
   21.100   2.936E+00
   21.200   2.857E+00
   21.300   2.782E+00
   21.400   2.709E+00
   21.500   2.640E+00
   21.600   2.573E+00
   21.700   2.508E+00
   21.800   2.446E+00
   21.900   2.387E+00
   22.000   2.330E+00
   22.100   2.275E+00
   22.200   2.222E+00
   22.300   2.171E+00
   22.400   2.122E+00
   22.500   2.074E+00
   22.600   2.028E+00
   22.700   1.984E+00
   22.800   1.942E+00
   22.900   1.901E+00
   23.000   1.861E+00
   23.100   1.822E+00
   23.200   1.785E+00
   23.300   1.749E+00
   23.400   1.715E+00
   23.500   1.681E+00
   23.600   1.649E+00
   23.700   1.617E+00
   23.800   1.586E+00
   23.900   1.557E+00
   24.000   1.528E+00
   24.100   1.500E+00
   24.200   1.473E+00
   24.300   1.447E+00
   24.400   1.421E+00
   24.500   1.397E+00
   24.600   1.372E+00
   24.700   1.349E+00
   24.800   1.326E+00
   24.900   1.304E+00
   25.000   1.283E+00
   25.100   1.262E+00
   25.200   1.241E+00
   25.300   1.221E+00
   25.400   1.202E+00
   25.500   1.183E+00
   25.600   1.165E+00
   25.700   1.147E+00
   25.800   1.129E+00
   25.900   1.112E+00
   26.000   1.095E+00
   26.100   1.079E+00
   26.200   1.063E+00
   26.300   1.048E+00
   26.400   1.033E+00
   26.500   1.018E+00
   26.600   1.004E+00
   26.700   9.895E-01
   26.800   9.757E-01
   26.900   9.623E-01
   27.000   9.491E-01
   27.100   9.362E-01
   27.200   9.236E-01
   27.300   9.113E-01
   27.400   8.993E-01
   27.500   8.875E-01
   27.600   8.759E-01
   27.700   8.646E-01
   27.800   8.535E-01
   27.900   8.427E-01
   28.000   8.321E-01
   28.100   8.217E-01
   28.200   8.115E-01
   28.300   8.015E-01
   28.400   7.917E-01
   28.500   7.821E-01
   28.600   7.727E-01
   28.700   7.635E-01
   28.800   7.544E-01
   28.900   7.456E-01
   29.000   7.369E-01
   29.100   7.283E-01
   29.200   7.199E-01
   29.300   7.117E-01
   29.400   7.036E-01
   29.500   6.957E-01
   29.600   6.879E-01
   29.700   6.803E-01
   29.800   6.728E-01
   29.900   6.654E-01
   30.000   6.581E-01
 
 Z=  53 A= 129  D1M-QRPA-Inter
 E[MeV]  fQRPA[mb/MeV]
    0.100   7.486E-05
    0.200   2.995E-04
    0.300   6.743E-04
    0.400   1.200E-03
    0.500   1.876E-03
    0.600   2.705E-03
    0.700   3.687E-03
    0.800   4.823E-03
    0.900   6.114E-03
    1.000   7.564E-03
    1.100   9.172E-03
    1.200   1.094E-02
    1.300   1.287E-02
    1.400   1.497E-02
    1.500   1.724E-02
    1.600   1.968E-02
    1.700   2.229E-02
    1.800   2.507E-02
    1.900   2.804E-02
    2.000   3.119E-02
    2.100   3.453E-02
    2.200   3.806E-02
    2.300   4.178E-02
    2.400   4.570E-02
    2.500   4.982E-02
    2.600   5.414E-02
    2.700   5.868E-02
    2.800   6.343E-02
    2.900   6.840E-02
    3.000   7.359E-02
    3.100   7.902E-02
    3.200   8.469E-02
    3.300   9.060E-02
    3.400   9.676E-02
    3.500   1.032E-01
    3.600   1.099E-01
    3.700   1.169E-01
    3.800   1.242E-01
    3.900   1.317E-01
    4.000   1.396E-01
    4.100   1.479E-01
    4.200   1.564E-01
    4.300   1.654E-01
    4.400   1.747E-01
    4.500   1.844E-01
    4.600   1.945E-01
    4.700   2.050E-01
    4.800   2.160E-01
    4.900   2.274E-01
    5.000   2.393E-01
    5.100   2.517E-01
    5.200   2.646E-01
    5.300   2.781E-01
    5.400   2.921E-01
    5.500   3.068E-01
    5.600   3.221E-01
    5.700   3.380E-01
    5.800   3.547E-01
    5.900   3.720E-01
    6.000   3.901E-01
    6.100   4.091E-01
    6.200   4.288E-01
    6.300   4.495E-01
    6.400   4.711E-01
    6.500   4.937E-01
    6.600   5.173E-01
    6.700   5.421E-01
    6.800   5.680E-01
    6.900   5.951E-01
    7.000   6.235E-01
    7.100   6.533E-01
    7.200   6.846E-01
    7.300   7.174E-01
    7.400   7.517E-01
    7.500   7.878E-01
    7.600   8.256E-01
    7.700   8.653E-01
    7.800   9.070E-01
    7.900   9.506E-01
    8.000   9.965E-01
    8.100   1.044E+00
    8.200   1.095E+00
    8.300   1.147E+00
    8.400   1.203E+00
    8.500   1.260E+00
    8.600   1.321E+00
    8.700   1.384E+00
    8.800   1.449E+00
    8.900   1.518E+00
    9.000   1.590E+00
    9.100   1.664E+00
    9.200   1.742E+00
    9.300   1.824E+00
    9.400   1.909E+00
    9.500   1.997E+00
    9.600   2.090E+00
    9.700   2.187E+00
    9.800   2.289E+00
    9.900   2.396E+00
   10.000   2.508E+00
   10.100   2.625E+00
   10.200   2.749E+00
   10.300   2.880E+00
   10.400   3.017E+00
   10.500   3.162E+00
   10.600   3.315E+00
   10.700   3.476E+00
   10.800   3.647E+00
   10.900   3.827E+00
   11.000   4.018E+00
   11.100   4.219E+00
   11.200   4.433E+00
   11.300   4.658E+00
   11.400   4.897E+00
   11.500   5.149E+00
   11.600   5.416E+00
   11.700   5.698E+00
   11.800   5.995E+00
   11.900   6.310E+00
   12.000   6.641E+00
   12.100   6.990E+00
   12.200   7.358E+00
   12.300   7.744E+00
   12.400   8.149E+00
   12.500   8.574E+00
   12.600   9.019E+00
   12.700   9.482E+00
   12.800   9.965E+00
   12.900   1.047E+01
   13.000   1.098E+01
   13.100   1.152E+01
   13.200   1.206E+01
   13.300   1.262E+01
   13.400   1.319E+01
   13.500   1.377E+01
   13.600   1.435E+01
   13.700   1.493E+01
   13.800   1.550E+01
   13.900   1.608E+01
   14.000   1.664E+01
   14.100   1.719E+01
   14.200   1.772E+01
   14.300   1.824E+01
   14.400   1.873E+01
   14.500   1.920E+01
   14.600   1.963E+01
   14.700   2.003E+01
   14.800   2.040E+01
   14.900   2.072E+01
   15.000   2.100E+01
   15.100   2.124E+01
   15.200   2.143E+01
   15.300   2.156E+01
   15.400   2.164E+01
   15.500   2.167E+01
   15.600   2.164E+01
   15.700   2.154E+01
   15.800   2.139E+01
   15.900   2.118E+01
   16.000   2.091E+01
   16.100   2.058E+01
   16.200   2.021E+01
   16.300   1.978E+01
   16.400   1.932E+01
   16.500   1.882E+01
   16.600   1.828E+01
   16.700   1.773E+01
   16.800   1.716E+01
   16.900   1.658E+01
   17.000   1.599E+01
   17.100   1.541E+01
   17.200   1.483E+01
   17.300   1.426E+01
   17.400   1.371E+01
   17.500   1.317E+01
   17.600   1.266E+01
   17.700   1.216E+01
   17.800   1.168E+01
   17.900   1.122E+01
   18.000   1.078E+01
   18.100   1.036E+01
   18.200   9.966E+00
   18.300   9.588E+00
   18.400   9.227E+00
   18.500   8.884E+00
   18.600   8.558E+00
   18.700   8.247E+00
   18.800   7.951E+00
   18.900   7.669E+00
   19.000   7.400E+00
   19.100   7.143E+00
   19.200   6.897E+00
   19.300   6.662E+00
   19.400   6.436E+00
   19.500   6.220E+00
   19.600   6.012E+00
   19.700   5.812E+00
   19.800   5.619E+00
   19.900   5.434E+00
   20.000   5.256E+00
   20.100   5.083E+00
   20.200   4.918E+00
   20.300   4.758E+00
   20.400   4.604E+00
   20.500   4.456E+00
   20.600   4.314E+00
   20.700   4.177E+00
   20.800   4.046E+00
   20.900   3.920E+00
   21.000   3.800E+00
   21.100   3.684E+00
   21.200   3.574E+00
   21.300   3.468E+00
   21.400   3.366E+00
   21.500   3.270E+00
   21.600   3.177E+00
   21.700   3.088E+00
   21.800   3.003E+00
   21.900   2.922E+00
   22.000   2.844E+00
   22.100   2.769E+00
   22.200   2.698E+00
   22.300   2.629E+00
   22.400   2.563E+00
   22.500   2.500E+00
   22.600   2.439E+00
   22.700   2.381E+00
   22.800   2.325E+00
   22.900   2.271E+00
   23.000   2.219E+00
   23.100   2.169E+00
   23.200   2.121E+00
   23.300   2.074E+00
   23.400   2.030E+00
   23.500   1.986E+00
   23.600   1.945E+00
   23.700   1.904E+00
   23.800   1.865E+00
   23.900   1.828E+00
   24.000   1.791E+00
   24.100   1.756E+00
   24.200   1.722E+00
   24.300   1.689E+00
   24.400   1.657E+00
   24.500   1.626E+00
   24.600   1.596E+00
   24.700   1.567E+00
   24.800   1.539E+00
   24.900   1.511E+00
   25.000   1.484E+00
   25.100   1.459E+00
   25.200   1.433E+00
   25.300   1.409E+00
   25.400   1.385E+00
   25.500   1.362E+00
   25.600   1.340E+00
   25.700   1.318E+00
   25.800   1.296E+00
   25.900   1.276E+00
   26.000   1.255E+00
   26.100   1.236E+00
   26.200   1.217E+00
   26.300   1.198E+00
   26.400   1.180E+00
   26.500   1.162E+00
   26.600   1.145E+00
   26.700   1.128E+00
   26.800   1.111E+00
   26.900   1.095E+00
   27.000   1.079E+00
   27.100   1.064E+00
   27.200   1.049E+00
   27.300   1.034E+00
   27.400   1.020E+00
   27.500   1.006E+00
   27.600   9.922E-01
   27.700   9.788E-01
   27.800   9.657E-01
   27.900   9.529E-01
   28.000   9.403E-01
   28.100   9.280E-01
   28.200   9.160E-01
   28.300   9.043E-01
   28.400   8.927E-01
   28.500   8.815E-01
   28.600   8.704E-01
   28.700   8.596E-01
   28.800   8.490E-01
   28.900   8.386E-01
   29.000   8.284E-01
   29.100   8.184E-01
   29.200   8.086E-01
   29.300   7.990E-01
   29.400   7.896E-01
   29.500   7.803E-01
   29.600   7.713E-01
   29.700   7.624E-01
   29.800   7.536E-01
   29.900   7.451E-01
   30.000   7.367E-01
 
 Z=  53 A= 130  D1M-QRPA-Inter
 E[MeV]  fQRPA[mb/MeV]
    0.100   6.068E-05
    0.200   2.428E-04
    0.300   5.466E-04
    0.400   9.724E-04
    0.500   1.521E-03
    0.600   2.192E-03
    0.700   2.988E-03
    0.800   3.909E-03
    0.900   4.956E-03
    1.000   6.130E-03
    1.100   7.433E-03
    1.200   8.867E-03
    1.300   1.043E-02
    1.400   1.213E-02
    1.500   1.397E-02
    1.600   1.594E-02
    1.700   1.806E-02
    1.800   2.032E-02
    1.900   2.272E-02
    2.000   2.527E-02
    2.100   2.798E-02
    2.200   3.084E-02
    2.300   3.386E-02
    2.400   3.704E-02
    2.500   4.038E-02
    2.600   4.389E-02
    2.700   4.758E-02
    2.800   5.144E-02
    2.900   5.549E-02
    3.000   5.972E-02
    3.100   6.414E-02
    3.200   6.875E-02
    3.300   7.357E-02
    3.400   7.860E-02
    3.500   8.385E-02
    3.600   8.931E-02
    3.700   9.501E-02
    3.800   1.010E-01
    3.900   1.071E-01
    4.000   1.136E-01
    4.100   1.203E-01
    4.200   1.273E-01
    4.300   1.346E-01
    4.400   1.422E-01
    4.500   1.501E-01
    4.600   1.583E-01
    4.700   1.669E-01
    4.800   1.758E-01
    4.900   1.851E-01
    5.000   1.948E-01
    5.100   2.049E-01
    5.200   2.154E-01
    5.300   2.263E-01
    5.400   2.377E-01
    5.500   2.496E-01
    5.600   2.620E-01
    5.700   2.749E-01
    5.800   2.884E-01
    5.900   3.024E-01
    6.000   3.171E-01
    6.100   3.324E-01
    6.200   3.484E-01
    6.300   3.651E-01
    6.400   3.826E-01
    6.500   4.009E-01
    6.600   4.200E-01
    6.700   4.400E-01
    6.800   4.609E-01
    6.900   4.828E-01
    7.000   5.058E-01
    7.100   5.299E-01
    7.200   5.552E-01
    7.300   5.817E-01
    7.400   6.095E-01
    7.500   6.387E-01
    7.600   6.693E-01
    7.700   7.014E-01
    7.800   7.351E-01
    7.900   7.705E-01
    8.000   8.076E-01
    8.100   8.465E-01
    8.200   8.872E-01
    8.300   9.298E-01
    8.400   9.744E-01
    8.500   1.021E+00
    8.600   1.070E+00
    8.700   1.121E+00
    8.800   1.174E+00
    8.900   1.229E+00
    9.000   1.287E+00
    9.100   1.347E+00
    9.200   1.410E+00
    9.300   1.476E+00
    9.400   1.544E+00
    9.500   1.616E+00
    9.600   1.690E+00
    9.700   1.769E+00
    9.800   1.851E+00
    9.900   1.937E+00
   10.000   2.027E+00
   10.100   2.122E+00
   10.200   2.221E+00
   10.300   2.326E+00
   10.400   2.437E+00
   10.500   2.553E+00
   10.600   2.676E+00
   10.700   2.805E+00
   10.800   2.942E+00
   10.900   3.086E+00
   11.000   3.239E+00
   11.100   3.400E+00
   11.200   3.570E+00
   11.300   3.751E+00
   11.400   3.941E+00
   11.500   4.143E+00
   11.600   4.356E+00
   11.700   4.582E+00
   11.800   4.820E+00
   11.900   5.072E+00
   12.000   5.338E+00
   12.100   5.618E+00
   12.200   5.914E+00
   12.300   6.225E+00
   12.400   6.553E+00
   12.500   6.897E+00
   12.600   7.258E+00
   12.700   7.637E+00
   12.800   8.032E+00
   12.900   8.445E+00
   13.000   8.875E+00
   13.100   9.320E+00
   13.200   9.780E+00
   13.300   1.025E+01
   13.400   1.074E+01
   13.500   1.123E+01
   13.600   1.174E+01
   13.700   1.224E+01
   13.800   1.275E+01
   13.900   1.326E+01
   14.000   1.376E+01
   14.100   1.426E+01
   14.200   1.474E+01
   14.300   1.521E+01
   14.400   1.566E+01
   14.500   1.609E+01
   14.600   1.649E+01
   14.700   1.686E+01
   14.800   1.719E+01
   14.900   1.749E+01
   15.000   1.775E+01
   15.100   1.795E+01
   15.200   1.811E+01
   15.300   1.822E+01
   15.400   1.826E+01
   15.500   1.825E+01
   15.600   1.818E+01
   15.700   1.805E+01
   15.800   1.786E+01
   15.900   1.762E+01
   16.000   1.732E+01
   16.100   1.697E+01
   16.200   1.658E+01
   16.300   1.615E+01
   16.400   1.570E+01
   16.500   1.522E+01
   16.600   1.473E+01
   16.700   1.423E+01
   16.800   1.372E+01
   16.900   1.321E+01
   17.000   1.271E+01
   17.100   1.222E+01
   17.200   1.174E+01
   17.300   1.128E+01
   17.400   1.083E+01
   17.500   1.040E+01
   17.600   9.987E+00
   17.700   9.593E+00
   17.800   9.217E+00
   17.900   8.859E+00
   18.000   8.519E+00
   18.100   8.196E+00
   18.200   7.888E+00
   18.300   7.596E+00
   18.400   7.318E+00
   18.500   7.054E+00
   18.600   6.802E+00
   18.700   6.561E+00
   18.800   6.332E+00
   18.900   6.113E+00
   19.000   5.903E+00
   19.100   5.702E+00
   19.200   5.510E+00
   19.300   5.325E+00
   19.400   5.148E+00
   19.500   4.977E+00
   19.600   4.813E+00
   19.700   4.655E+00
   19.800   4.503E+00
   19.900   4.356E+00
   20.000   4.214E+00
   20.100   4.078E+00
   20.200   3.946E+00
   20.300   3.819E+00
   20.400   3.697E+00
   20.500   3.579E+00
   20.600   3.466E+00
   20.700   3.357E+00
   20.800   3.252E+00
   20.900   3.152E+00
   21.000   3.056E+00
   21.100   2.964E+00
   21.200   2.875E+00
   21.300   2.791E+00
   21.400   2.710E+00
   21.500   2.632E+00
   21.600   2.558E+00
   21.700   2.487E+00
   21.800   2.419E+00
   21.900   2.354E+00
   22.000   2.291E+00
   22.100   2.232E+00
   22.200   2.174E+00
   22.300   2.119E+00
   22.400   2.066E+00
   22.500   2.016E+00
   22.600   1.967E+00
   22.700   1.920E+00
   22.800   1.875E+00
   22.900   1.832E+00
   23.000   1.790E+00
   23.100   1.750E+00
   23.200   1.712E+00
   23.300   1.674E+00
   23.400   1.638E+00
   23.500   1.604E+00
   23.600   1.570E+00
   23.700   1.538E+00
   23.800   1.506E+00
   23.900   1.476E+00
   24.000   1.447E+00
   24.100   1.419E+00
   24.200   1.391E+00
   24.300   1.365E+00
   24.400   1.339E+00
   24.500   1.314E+00
   24.600   1.290E+00
   24.700   1.266E+00
   24.800   1.244E+00
   24.900   1.221E+00
   25.000   1.200E+00
   25.100   1.179E+00
   25.200   1.159E+00
   25.300   1.139E+00
   25.400   1.120E+00
   25.500   1.102E+00
   25.600   1.083E+00
   25.700   1.066E+00
   25.800   1.049E+00
   25.900   1.032E+00
   26.000   1.016E+00
   26.100   9.998E-01
   26.200   9.843E-01
   26.300   9.693E-01
   26.400   9.546E-01
   26.500   9.402E-01
   26.600   9.263E-01
   26.700   9.126E-01
   26.800   8.993E-01
   26.900   8.863E-01
   27.000   8.736E-01
   27.100   8.612E-01
   27.200   8.491E-01
   27.300   8.373E-01
   27.400   8.257E-01
   27.500   8.144E-01
   27.600   8.033E-01
   27.700   7.925E-01
   27.800   7.819E-01
   27.900   7.716E-01
   28.000   7.615E-01
   28.100   7.515E-01
   28.200   7.418E-01
   28.300   7.323E-01
   28.400   7.230E-01
   28.500   7.139E-01
   28.600   7.050E-01
   28.700   6.963E-01
   28.800   6.877E-01
   28.900   6.793E-01
   29.000   6.711E-01
   29.100   6.630E-01
   29.200   6.551E-01
   29.300   6.473E-01
   29.400   6.397E-01
   29.500   6.322E-01
   29.600   6.249E-01
   29.700   6.177E-01
   29.800   6.107E-01
   29.900   6.038E-01
   30.000   5.970E-01
 
 Z=  53 A= 131  D1M-QRPA-Inter
 E[MeV]  fQRPA[mb/MeV]
    0.100   7.340E-05
    0.200   2.937E-04
    0.300   6.611E-04
    0.400   1.176E-03
    0.500   1.839E-03
    0.600   2.652E-03
    0.700   3.614E-03
    0.800   4.727E-03
    0.900   5.993E-03
    1.000   7.413E-03
    1.100   8.988E-03
    1.200   1.072E-02
    1.300   1.261E-02
    1.400   1.467E-02
    1.500   1.689E-02
    1.600   1.928E-02
    1.700   2.183E-02
    1.800   2.456E-02
    1.900   2.747E-02
    2.000   3.056E-02
    2.100   3.383E-02
    2.200   3.729E-02
    2.300   4.094E-02
    2.400   4.479E-02
    2.500   4.884E-02
    2.600   5.310E-02
    2.700   5.757E-02
    2.800   6.225E-02
    2.900   6.716E-02
    3.000   7.230E-02
    3.100   7.768E-02
    3.200   8.329E-02
    3.300   8.915E-02
    3.400   9.527E-02
    3.500   1.017E-01
    3.600   1.083E-01
    3.700   1.153E-01
    3.800   1.225E-01
    3.900   1.300E-01
    4.000   1.379E-01
    4.100   1.460E-01
    4.200   1.546E-01
    4.300   1.634E-01
    4.400   1.726E-01
    4.500   1.823E-01
    4.600   1.923E-01
    4.700   2.027E-01
    4.800   2.135E-01
    4.900   2.248E-01
    5.000   2.366E-01
    5.100   2.488E-01
    5.200   2.616E-01
    5.300   2.748E-01
    5.400   2.886E-01
    5.500   3.030E-01
    5.600   3.180E-01
    5.700   3.336E-01
    5.800   3.499E-01
    5.900   3.669E-01
    6.000   3.846E-01
    6.100   4.031E-01
    6.200   4.224E-01
    6.300   4.425E-01
    6.400   4.636E-01
    6.500   4.856E-01
    6.600   5.087E-01
    6.700   5.328E-01
    6.800   5.581E-01
    6.900   5.846E-01
    7.000   6.123E-01
    7.100   6.414E-01
    7.200   6.719E-01
    7.300   7.039E-01
    7.400   7.374E-01
    7.500   7.727E-01
    7.600   8.096E-01
    7.700   8.484E-01
    7.800   8.891E-01
    7.900   9.319E-01
    8.000   9.766E-01
    8.100   1.024E+00
    8.200   1.073E+00
    8.300   1.124E+00
    8.400   1.178E+00
    8.500   1.234E+00
    8.600   1.293E+00
    8.700   1.355E+00
    8.800   1.419E+00
    8.900   1.485E+00
    9.000   1.555E+00
    9.100   1.627E+00
    9.200   1.703E+00
    9.300   1.781E+00
    9.400   1.864E+00
    9.500   1.950E+00
    9.600   2.039E+00
    9.700   2.134E+00
    9.800   2.232E+00
    9.900   2.336E+00
   10.000   2.444E+00
   10.100   2.558E+00
   10.200   2.678E+00
   10.300   2.804E+00
   10.400   2.937E+00
   10.500   3.076E+00
   10.600   3.223E+00
   10.700   3.378E+00
   10.800   3.541E+00
   10.900   3.714E+00
   11.000   3.896E+00
   11.100   4.088E+00
   11.200   4.291E+00
   11.300   4.506E+00
   11.400   4.734E+00
   11.500   4.974E+00
   11.600   5.229E+00
   11.700   5.498E+00
   11.800   5.782E+00
   11.900   6.083E+00
   12.000   6.402E+00
   12.100   6.738E+00
   12.200   7.092E+00
   12.300   7.467E+00
   12.400   7.862E+00
   12.500   8.278E+00
   12.600   8.716E+00
   12.700   9.177E+00
   12.800   9.661E+00
   12.900   1.017E+01
   13.000   1.070E+01
   13.100   1.125E+01
   13.200   1.183E+01
   13.300   1.243E+01
   13.400   1.305E+01
   13.500   1.368E+01
   13.600   1.433E+01
   13.700   1.499E+01
   13.800   1.565E+01
   13.900   1.632E+01
   14.000   1.699E+01
   14.100   1.764E+01
   14.200   1.829E+01
   14.300   1.892E+01
   14.400   1.953E+01
   14.500   2.011E+01
   14.600   2.066E+01
   14.700   2.117E+01
   14.800   2.163E+01
   14.900   2.203E+01
   15.000   2.237E+01
   15.100   2.265E+01
   15.200   2.285E+01
   15.300   2.296E+01
   15.400   2.300E+01
   15.500   2.294E+01
   15.600   2.280E+01
   15.700   2.257E+01
   15.800   2.225E+01
   15.900   2.186E+01
   16.000   2.140E+01
   16.100   2.087E+01
   16.200   2.030E+01
   16.300   1.968E+01
   16.400   1.904E+01
   16.500   1.838E+01
   16.600   1.771E+01
   16.700   1.704E+01
   16.800   1.637E+01
   16.900   1.572E+01
   17.000   1.508E+01
   17.100   1.447E+01
   17.200   1.387E+01
   17.300   1.331E+01
   17.400   1.277E+01
   17.500   1.225E+01
   17.600   1.176E+01
   17.700   1.130E+01
   17.800   1.086E+01
   17.900   1.044E+01
   18.000   1.004E+01
   18.100   9.671E+00
   18.200   9.316E+00
   18.300   8.980E+00
   18.400   8.660E+00
   18.500   8.356E+00
   18.600   8.066E+00
   18.700   7.789E+00
   18.800   7.524E+00
   18.900   7.270E+00
   19.000   7.027E+00
   19.100   6.793E+00
   19.200   6.568E+00
   19.300   6.352E+00
   19.400   6.144E+00
   19.500   5.943E+00
   19.600   5.750E+00
   19.700   5.563E+00
   19.800   5.384E+00
   19.900   5.210E+00
   20.000   5.042E+00
   20.100   4.881E+00
   20.200   4.725E+00
   20.300   4.574E+00
   20.400   4.429E+00
   20.500   4.289E+00
   20.600   4.155E+00
   20.700   4.025E+00
   20.800   3.901E+00
   20.900   3.782E+00
   21.000   3.667E+00
   21.100   3.557E+00
   21.200   3.452E+00
   21.300   3.351E+00
   21.400   3.254E+00
   21.500   3.162E+00
   21.600   3.073E+00
   21.700   2.989E+00
   21.800   2.907E+00
   21.900   2.830E+00
   22.000   2.755E+00
   22.100   2.683E+00
   22.200   2.615E+00
   22.300   2.549E+00
   22.400   2.486E+00
   22.500   2.425E+00
   22.600   2.367E+00
   22.700   2.311E+00
   22.800   2.257E+00
   22.900   2.205E+00
   23.000   2.155E+00
   23.100   2.107E+00
   23.200   2.061E+00
   23.300   2.016E+00
   23.400   1.973E+00
   23.500   1.932E+00
   23.600   1.891E+00
   23.700   1.853E+00
   23.800   1.815E+00
   23.900   1.779E+00
   24.000   1.744E+00
   24.100   1.710E+00
   24.200   1.677E+00
   24.300   1.645E+00
   24.400   1.614E+00
   24.500   1.584E+00
   24.600   1.555E+00
   24.700   1.527E+00
   24.800   1.500E+00
   24.900   1.473E+00
   25.000   1.448E+00
   25.100   1.422E+00
   25.200   1.398E+00
   25.300   1.375E+00
   25.400   1.352E+00
   25.500   1.329E+00
   25.600   1.307E+00
   25.700   1.286E+00
   25.800   1.266E+00
   25.900   1.246E+00
   26.000   1.226E+00
   26.100   1.207E+00
   26.200   1.188E+00
   26.300   1.170E+00
   26.400   1.153E+00
   26.500   1.135E+00
   26.600   1.118E+00
   26.700   1.102E+00
   26.800   1.086E+00
   26.900   1.070E+00
   27.000   1.055E+00
   27.100   1.040E+00
   27.200   1.026E+00
   27.300   1.011E+00
   27.400   9.974E-01
   27.500   9.838E-01
   27.600   9.705E-01
   27.700   9.575E-01
   27.800   9.447E-01
   27.900   9.323E-01
   28.000   9.201E-01
   28.100   9.081E-01
   28.200   8.965E-01
   28.300   8.850E-01
   28.400   8.738E-01
   28.500   8.628E-01
   28.600   8.521E-01
   28.700   8.415E-01
   28.800   8.312E-01
   28.900   8.211E-01
   29.000   8.112E-01
   29.100   8.014E-01
   29.200   7.919E-01
   29.300   7.826E-01
   29.400   7.734E-01
   29.500   7.644E-01
   29.600   7.556E-01
   29.700   7.469E-01
   29.800   7.384E-01
   29.900   7.300E-01
   30.000   7.218E-01
 
 Z=  53 A= 132  D1M-QRPA-Inter
 E[MeV]  fQRPA[mb/MeV]
    0.100   9.347E-05
    0.200   3.715E-04
    0.300   8.278E-04
    0.400   1.454E-03
    0.500   2.242E-03
    0.600   3.184E-03
    0.700   4.277E-03
    0.800   5.517E-03
    0.900   6.904E-03
    1.000   8.439E-03
    1.100   1.012E-02
    1.200   1.196E-02
    1.300   1.395E-02
    1.400   1.611E-02
    1.500   1.842E-02
    1.600   2.091E-02
    1.700   2.356E-02
    1.800   2.639E-02
    1.900   2.940E-02
    2.000   3.260E-02
    2.100   3.599E-02
    2.200   3.957E-02
    2.300   4.335E-02
    2.400   4.733E-02
    2.500   5.153E-02
    2.600   5.594E-02
    2.700   6.058E-02
    2.800   6.545E-02
    2.900   7.055E-02
    3.000   7.589E-02
    3.100   8.149E-02
    3.200   8.734E-02
    3.300   9.346E-02
    3.400   9.986E-02
    3.500   1.065E-01
    3.600   1.135E-01
    3.700   1.208E-01
    3.800   1.284E-01
    3.900   1.363E-01
    4.000   1.446E-01
    4.100   1.532E-01
    4.200   1.622E-01
    4.300   1.716E-01
    4.400   1.813E-01
    4.500   1.915E-01
    4.600   2.021E-01
    4.700   2.132E-01
    4.800   2.247E-01
    4.900   2.368E-01
    5.000   2.493E-01
    5.100   2.624E-01
    5.200   2.760E-01
    5.300   2.903E-01
    5.400   3.051E-01
    5.500   3.206E-01
    5.600   3.367E-01
    5.700   3.536E-01
    5.800   3.711E-01
    5.900   3.895E-01
    6.000   4.087E-01
    6.100   4.287E-01
    6.200   4.497E-01
    6.300   4.716E-01
    6.400   4.946E-01
    6.500   5.186E-01
    6.600   5.438E-01
    6.700   5.701E-01
    6.800   5.978E-01
    6.900   6.268E-01
    7.000   6.572E-01
    7.100   6.892E-01
    7.200   7.227E-01
    7.300   7.579E-01
    7.400   7.950E-01
    7.500   8.339E-01
    7.600   8.748E-01
    7.700   9.178E-01
    7.800   9.630E-01
    7.900   1.011E+00
    8.000   1.061E+00
    8.100   1.113E+00
    8.200   1.168E+00
    8.300   1.226E+00
    8.400   1.287E+00
    8.500   1.351E+00
    8.600   1.418E+00
    8.700   1.488E+00
    8.800   1.561E+00
    8.900   1.639E+00
    9.000   1.720E+00
    9.100   1.805E+00
    9.200   1.894E+00
    9.300   1.987E+00
    9.400   2.086E+00
    9.500   2.190E+00
    9.600   2.299E+00
    9.700   2.414E+00
    9.800   2.535E+00
    9.900   2.663E+00
   10.000   2.798E+00
   10.100   2.941E+00
   10.200   3.092E+00
   10.300   3.251E+00
   10.400   3.420E+00
   10.500   3.599E+00
   10.600   3.788E+00
   10.700   3.988E+00
   10.800   4.200E+00
   10.900   4.425E+00
   11.000   4.663E+00
   11.100   4.915E+00
   11.200   5.182E+00
   11.300   5.465E+00
   11.400   5.765E+00
   11.500   6.081E+00
   11.600   6.416E+00
   11.700   6.768E+00
   11.800   7.138E+00
   11.900   7.527E+00
   12.000   7.933E+00
   12.100   8.358E+00
   12.200   8.798E+00
   12.300   9.255E+00
   12.400   9.725E+00
   12.500   1.021E+01
   12.600   1.070E+01
   12.700   1.120E+01
   12.800   1.171E+01
   12.900   1.222E+01
   13.000   1.273E+01
   13.100   1.324E+01
   13.200   1.374E+01
   13.300   1.423E+01
   13.400   1.471E+01
   13.500   1.517E+01
   13.600   1.562E+01
   13.700   1.604E+01
   13.800   1.643E+01
   13.900   1.679E+01
   14.000   1.712E+01
   14.100   1.741E+01
   14.200   1.767E+01
   14.300   1.789E+01
   14.400   1.806E+01
   14.500   1.819E+01
   14.600   1.828E+01
   14.700   1.832E+01
   14.800   1.831E+01
   14.900   1.826E+01
   15.000   1.816E+01
   15.100   1.801E+01
   15.200   1.782E+01
   15.300   1.758E+01
   15.400   1.731E+01
   15.500   1.699E+01
   15.600   1.664E+01
   15.700   1.625E+01
   15.800   1.584E+01
   15.900   1.541E+01
   16.000   1.496E+01
   16.100   1.450E+01
   16.200   1.403E+01
   16.300   1.355E+01
   16.400   1.308E+01
   16.500   1.261E+01
   16.600   1.215E+01
   16.700   1.170E+01
   16.800   1.126E+01
   16.900   1.083E+01
   17.000   1.042E+01
   17.100   1.002E+01
   17.200   9.640E+00
   17.300   9.274E+00
   17.400   8.924E+00
   17.500   8.589E+00
   17.600   8.269E+00
   17.700   7.963E+00
   17.800   7.671E+00
   17.900   7.392E+00
   18.000   7.126E+00
   18.100   6.871E+00
   18.200   6.628E+00
   18.300   6.395E+00
   18.400   6.172E+00
   18.500   5.959E+00
   18.600   5.755E+00
   18.700   5.559E+00
   18.800   5.372E+00
   18.900   5.193E+00
   19.000   5.021E+00
   19.100   4.856E+00
   19.200   4.698E+00
   19.300   4.546E+00
   19.400   4.400E+00
   19.500   4.261E+00
   19.600   4.127E+00
   19.700   3.998E+00
   19.800   3.875E+00
   19.900   3.756E+00
   20.000   3.642E+00
   20.100   3.532E+00
   20.200   3.427E+00
   20.300   3.326E+00
   20.400   3.228E+00
   20.500   3.135E+00
   20.600   3.045E+00
   20.700   2.959E+00
   20.800   2.876E+00
   20.900   2.796E+00
   21.000   2.720E+00
   21.100   2.646E+00
   21.200   2.576E+00
   21.300   2.508E+00
   21.400   2.443E+00
   21.500   2.381E+00
   21.600   2.321E+00
   21.700   2.263E+00
   21.800   2.208E+00
   21.900   2.154E+00
   22.000   2.103E+00
   22.100   2.054E+00
   22.200   2.007E+00
   22.300   1.961E+00
   22.400   1.917E+00
   22.500   1.875E+00
   22.600   1.834E+00
   22.700   1.794E+00
   22.800   1.756E+00
   22.900   1.719E+00
   23.000   1.684E+00
   23.100   1.650E+00
   23.200   1.617E+00
   23.300   1.584E+00
   23.400   1.553E+00
   23.500   1.523E+00
   23.600   1.494E+00
   23.700   1.466E+00
   23.800   1.439E+00
   23.900   1.412E+00
   24.000   1.387E+00
   24.100   1.362E+00
   24.200   1.337E+00
   24.300   1.314E+00
   24.400   1.291E+00
   24.500   1.269E+00
   24.600   1.247E+00
   24.700   1.226E+00
   24.800   1.206E+00
   24.900   1.186E+00
   25.000   1.167E+00
   25.100   1.148E+00
   25.200   1.130E+00
   25.300   1.112E+00
   25.400   1.095E+00
   25.500   1.078E+00
   25.600   1.061E+00
   25.700   1.045E+00
   25.800   1.029E+00
   25.900   1.014E+00
   26.000   9.991E-01
   26.100   9.845E-01
   26.200   9.703E-01
   26.300   9.564E-01
   26.400   9.428E-01
   26.500   9.296E-01
   26.600   9.166E-01
   26.700   9.039E-01
   26.800   8.915E-01
   26.900   8.794E-01
   27.000   8.676E-01
   27.100   8.560E-01
   27.200   8.447E-01
   27.300   8.336E-01
   27.400   8.227E-01
   27.500   8.121E-01
   27.600   8.017E-01
   27.700   7.915E-01
   27.800   7.815E-01
   27.900   7.717E-01
   28.000   7.622E-01
   28.100   7.528E-01
   28.200   7.436E-01
   28.300   7.346E-01
   28.400   7.257E-01
   28.500   7.171E-01
   28.600   7.086E-01
   28.700   7.002E-01
   28.800   6.921E-01
   28.900   6.840E-01
   29.000   6.762E-01
   29.100   6.684E-01
   29.200   6.609E-01
   29.300   6.534E-01
   29.400   6.461E-01
   29.500   6.389E-01
   29.600   6.319E-01
   29.700   6.250E-01
   29.800   6.182E-01
   29.900   6.115E-01
   30.000   6.049E-01
 
 Z=  53 A= 133  D1M-QRPA-Inter
 E[MeV]  fQRPA[mb/MeV]
    0.100   1.489E-04
    0.200   5.878E-04
    0.300   1.297E-03
    0.400   2.249E-03
    0.500   3.418E-03
    0.600   4.783E-03
    0.700   6.331E-03
    0.800   8.054E-03
    0.900   9.949E-03
    1.000   1.202E-02
    1.100   1.426E-02
    1.200   1.669E-02
    1.300   1.931E-02
    1.400   2.212E-02
    1.500   2.514E-02
    1.600   2.836E-02
    1.700   3.180E-02
    1.800   3.547E-02
    1.900   3.937E-02
    2.000   4.350E-02
    2.100   4.788E-02
    2.200   5.251E-02
    2.300   5.741E-02
    2.400   6.257E-02
    2.500   6.801E-02
    2.600   7.373E-02
    2.700   7.975E-02
    2.800   8.606E-02
    2.900   9.270E-02
    3.000   9.965E-02
    3.100   1.069E-01
    3.200   1.146E-01
    3.300   1.226E-01
    3.400   1.309E-01
    3.500   1.397E-01
    3.600   1.488E-01
    3.700   1.584E-01
    3.800   1.683E-01
    3.900   1.788E-01
    4.000   1.897E-01
    4.100   2.010E-01
    4.200   2.129E-01
    4.300   2.253E-01
    4.400   2.382E-01
    4.500   2.517E-01
    4.600   2.658E-01
    4.700   2.806E-01
    4.800   2.959E-01
    4.900   3.120E-01
    5.000   3.287E-01
    5.100   3.462E-01
    5.200   3.644E-01
    5.300   3.835E-01
    5.400   4.034E-01
    5.500   4.242E-01
    5.600   4.460E-01
    5.700   4.687E-01
    5.800   4.924E-01
    5.900   5.173E-01
    6.000   5.433E-01
    6.100   5.705E-01
    6.200   5.989E-01
    6.300   6.287E-01
    6.400   6.600E-01
    6.500   6.927E-01
    6.600   7.271E-01
    6.700   7.631E-01
    6.800   8.009E-01
    6.900   8.407E-01
    7.000   8.824E-01
    7.100   9.263E-01
    7.200   9.724E-01
    7.300   1.021E+00
    7.400   1.072E+00
    7.500   1.126E+00
    7.600   1.182E+00
    7.700   1.242E+00
    7.800   1.305E+00
    7.900   1.371E+00
    8.000   1.440E+00
    8.100   1.514E+00
    8.200   1.591E+00
    8.300   1.673E+00
    8.400   1.758E+00
    8.500   1.849E+00
    8.600   1.944E+00
    8.700   2.044E+00
    8.800   2.150E+00
    8.900   2.262E+00
    9.000   2.379E+00
    9.100   2.504E+00
    9.200   2.635E+00
    9.300   2.774E+00
    9.400   2.921E+00
    9.500   3.076E+00
    9.600   3.241E+00
    9.700   3.416E+00
    9.800   3.601E+00
    9.900   3.798E+00
   10.000   4.007E+00
   10.100   4.229E+00
   10.200   4.465E+00
   10.300   4.716E+00
   10.400   4.983E+00
   10.500   5.267E+00
   10.600   5.568E+00
   10.700   5.889E+00
   10.800   6.231E+00
   10.900   6.595E+00
   11.000   6.981E+00
   11.100   7.392E+00
   11.200   7.828E+00
   11.300   8.291E+00
   11.400   8.782E+00
   11.500   9.300E+00
   11.600   9.847E+00
   11.700   1.042E+01
   11.800   1.102E+01
   11.900   1.165E+01
   12.000   1.230E+01
   12.100   1.297E+01
   12.200   1.365E+01
   12.300   1.435E+01
   12.400   1.505E+01
   12.500   1.575E+01
   12.600   1.644E+01
   12.700   1.711E+01
   12.800   1.776E+01
   12.900   1.837E+01
   13.000   1.895E+01
   13.100   1.948E+01
   13.200   1.997E+01
   13.300   2.039E+01
   13.400   2.076E+01
   13.500   2.106E+01
   13.600   2.130E+01
   13.700   2.147E+01
   13.800   2.157E+01
   13.900   2.161E+01
   14.000   2.159E+01
   14.100   2.150E+01
   14.200   2.135E+01
   14.300   2.115E+01
   14.400   2.089E+01
   14.500   2.058E+01
   14.600   2.023E+01
   14.700   1.983E+01
   14.800   1.940E+01
   14.900   1.893E+01
   15.000   1.844E+01
   15.100   1.792E+01
   15.200   1.739E+01
   15.300   1.684E+01
   15.400   1.629E+01
   15.500   1.574E+01
   15.600   1.519E+01
   15.700   1.464E+01
   15.800   1.411E+01
   15.900   1.359E+01
   16.000   1.308E+01
   16.100   1.260E+01
   16.200   1.213E+01
   16.300   1.167E+01
   16.400   1.124E+01
   16.500   1.083E+01
   16.600   1.043E+01
   16.700   1.005E+01
   16.800   9.684E+00
   16.900   9.336E+00
   17.000   9.003E+00
   17.100   8.684E+00
   17.200   8.378E+00
   17.300   8.085E+00
   17.400   7.803E+00
   17.500   7.533E+00
   17.600   7.273E+00
   17.700   7.022E+00
   17.800   6.781E+00
   17.900   6.548E+00
   18.000   6.323E+00
   18.100   6.107E+00
   18.200   5.898E+00
   18.300   5.696E+00
   18.400   5.502E+00
   18.500   5.316E+00
   18.600   5.136E+00
   18.700   4.963E+00
   18.800   4.798E+00
   18.900   4.639E+00
   19.000   4.487E+00
   19.100   4.342E+00
   19.200   4.203E+00
   19.300   4.070E+00
   19.400   3.943E+00
   19.500   3.821E+00
   19.600   3.705E+00
   19.700   3.594E+00
   19.800   3.488E+00
   19.900   3.387E+00
   20.000   3.290E+00
   20.100   3.198E+00
   20.200   3.109E+00
   20.300   3.025E+00
   20.400   2.944E+00
   20.500   2.866E+00
   20.600   2.792E+00
   20.700   2.720E+00
   20.800   2.652E+00
   20.900   2.586E+00
   21.000   2.523E+00
   21.100   2.462E+00
   21.200   2.404E+00
   21.300   2.348E+00
   21.400   2.294E+00
   21.500   2.242E+00
   21.600   2.192E+00
   21.700   2.143E+00
   21.800   2.097E+00
   21.900   2.052E+00
   22.000   2.008E+00
   22.100   1.967E+00
   22.200   1.926E+00
   22.300   1.887E+00
   22.400   1.849E+00
   22.500   1.812E+00
   22.600   1.777E+00
   22.700   1.743E+00
   22.800   1.709E+00
   22.900   1.677E+00
   23.000   1.646E+00
   23.100   1.615E+00
   23.200   1.586E+00
   23.300   1.558E+00
   23.400   1.530E+00
   23.500   1.503E+00
   23.600   1.477E+00
   23.700   1.451E+00
   23.800   1.427E+00
   23.900   1.403E+00
   24.000   1.379E+00
   24.100   1.357E+00
   24.200   1.334E+00
   24.300   1.313E+00
   24.400   1.292E+00
   24.500   1.271E+00
   24.600   1.251E+00
   24.700   1.232E+00
   24.800   1.213E+00
   24.900   1.195E+00
   25.000   1.177E+00
   25.100   1.159E+00
   25.200   1.142E+00
   25.300   1.125E+00
   25.400   1.109E+00
   25.500   1.093E+00
   25.600   1.077E+00
   25.700   1.062E+00
   25.800   1.047E+00
   25.900   1.033E+00
   26.000   1.019E+00
   26.100   1.005E+00
   26.200   9.911E-01
   26.300   9.778E-01
   26.400   9.648E-01
   26.500   9.521E-01
   26.600   9.396E-01
   26.700   9.274E-01
   26.800   9.155E-01
   26.900   9.038E-01
   27.000   8.924E-01
   27.100   8.812E-01
   27.200   8.702E-01
   27.300   8.594E-01
   27.400   8.489E-01
   27.500   8.385E-01
   27.600   8.284E-01
   27.700   8.185E-01
   27.800   8.087E-01
   27.900   7.992E-01
   28.000   7.898E-01
   28.100   7.806E-01
   28.200   7.716E-01
   28.300   7.627E-01
   28.400   7.540E-01
   28.500   7.455E-01
   28.600   7.371E-01
   28.700   7.289E-01
   28.800   7.208E-01
   28.900   7.128E-01
   29.000   7.050E-01
   29.100   6.974E-01
   29.200   6.899E-01
   29.300   6.825E-01
   29.400   6.752E-01
   29.500   6.681E-01
   29.600   6.610E-01
   29.700   6.541E-01
   29.800   6.473E-01
   29.900   6.407E-01
   30.000   6.341E-01
 
 Z=  53 A= 137  D1M-QRPA-Inter
 E[MeV]  fQRPA[mb/MeV]
    0.100   9.969E-05
    0.200   3.989E-04
    0.300   8.980E-04
    0.400   1.598E-03
    0.500   2.499E-03
    0.600   3.603E-03
    0.700   4.911E-03
    0.800   6.425E-03
    0.900   8.148E-03
    1.000   1.008E-02
    1.100   1.223E-02
    1.200   1.459E-02
    1.300   1.717E-02
    1.400   1.997E-02
    1.500   2.301E-02
    1.600   2.627E-02
    1.700   2.977E-02
    1.800   3.351E-02
    1.900   3.749E-02
    2.000   4.173E-02
    2.100   4.623E-02
    2.200   5.099E-02
    2.300   5.603E-02
    2.400   6.134E-02
    2.500   6.695E-02
    2.600   7.285E-02
    2.700   7.906E-02
    2.800   8.558E-02
    2.900   9.244E-02
    3.000   9.963E-02
    3.100   1.072E-01
    3.200   1.151E-01
    3.300   1.234E-01
    3.400   1.320E-01
    3.500   1.411E-01
    3.600   1.506E-01
    3.700   1.606E-01
    3.800   1.710E-01
    3.900   1.819E-01
    4.000   1.933E-01
    4.100   2.052E-01
    4.200   2.177E-01
    4.300   2.307E-01
    4.400   2.443E-01
    4.500   2.586E-01
    4.600   2.735E-01
    4.700   2.891E-01
    4.800   3.055E-01
    4.900   3.226E-01
    5.000   3.405E-01
    5.100   3.592E-01
    5.200   3.789E-01
    5.300   3.994E-01
    5.400   4.209E-01
    5.500   4.435E-01
    5.600   4.671E-01
    5.700   4.918E-01
    5.800   5.177E-01
    5.900   5.448E-01
    6.000   5.732E-01
    6.100   6.029E-01
    6.200   6.340E-01
    6.300   6.665E-01
    6.400   7.005E-01
    6.500   7.359E-01
    6.600   7.729E-01
    6.700   8.114E-01
    6.800   8.515E-01
    6.900   8.932E-01
    7.000   9.364E-01
    7.100   9.813E-01
    7.200   1.028E+00
    7.300   1.076E+00
    7.400   1.126E+00
    7.500   1.177E+00
    7.600   1.230E+00
    7.700   1.284E+00
    7.800   1.341E+00
    7.900   1.399E+00
    8.000   1.459E+00
    8.100   1.521E+00
    8.200   1.585E+00
    8.300   1.651E+00
    8.400   1.720E+00
    8.500   1.791E+00
    8.600   1.865E+00
    8.700   1.941E+00
    8.800   2.021E+00
    8.900   2.104E+00
    9.000   2.190E+00
    9.100   2.280E+00
    9.200   2.373E+00
    9.300   2.471E+00
    9.400   2.572E+00
    9.500   2.678E+00
    9.600   2.788E+00
    9.700   2.903E+00
    9.800   3.023E+00
    9.900   3.148E+00
   10.000   3.279E+00
   10.100   3.415E+00
   10.200   3.557E+00
   10.300   3.705E+00
   10.400   3.860E+00
   10.500   4.021E+00
   10.600   4.190E+00
   10.700   4.366E+00
   10.800   4.550E+00
   10.900   4.742E+00
   11.000   4.944E+00
   11.100   5.154E+00
   11.200   5.375E+00
   11.300   5.607E+00
   11.400   5.851E+00
   11.500   6.106E+00
   11.600   6.375E+00
   11.700   6.657E+00
   11.800   6.954E+00
   11.900   7.267E+00
   12.000   7.596E+00
   12.100   7.942E+00
   12.200   8.305E+00
   12.300   8.687E+00
   12.400   9.089E+00
   12.500   9.509E+00
   12.600   9.949E+00
   12.700   1.041E+01
   12.800   1.089E+01
   12.900   1.138E+01
   13.000   1.190E+01
   13.100   1.242E+01
   13.200   1.296E+01
   13.300   1.351E+01
   13.400   1.407E+01
   13.500   1.463E+01
   13.600   1.518E+01
   13.700   1.573E+01
   13.800   1.626E+01
   13.900   1.678E+01
   14.000   1.726E+01
   14.100   1.771E+01
   14.200   1.812E+01
   14.300   1.849E+01
   14.400   1.880E+01
   14.500   1.906E+01
   14.600   1.926E+01
   14.700   1.940E+01
   14.800   1.947E+01
   14.900   1.948E+01
   15.000   1.943E+01
   15.100   1.932E+01
   15.200   1.915E+01
   15.300   1.892E+01
   15.400   1.865E+01
   15.500   1.834E+01
   15.600   1.798E+01
   15.700   1.760E+01
   15.800   1.720E+01
   15.900   1.678E+01
   16.000   1.634E+01
   16.100   1.589E+01
   16.200   1.545E+01
   16.300   1.500E+01
   16.400   1.456E+01
   16.500   1.412E+01
   16.600   1.369E+01
   16.700   1.327E+01
   16.800   1.287E+01
   16.900   1.248E+01
   17.000   1.210E+01
   17.100   1.173E+01
   17.200   1.138E+01
   17.300   1.104E+01
   17.400   1.071E+01
   17.500   1.040E+01
   17.600   1.009E+01
   17.700   9.798E+00
   17.800   9.514E+00
   17.900   9.241E+00
   18.000   8.976E+00
   18.100   8.719E+00
   18.200   8.470E+00
   18.300   8.229E+00
   18.400   7.995E+00
   18.500   7.767E+00
   18.600   7.546E+00
   18.700   7.331E+00
   18.800   7.121E+00
   18.900   6.917E+00
   19.000   6.719E+00
   19.100   6.526E+00
   19.200   6.338E+00
   19.300   6.155E+00
   19.400   5.978E+00
   19.500   5.805E+00
   19.600   5.637E+00
   19.700   5.474E+00
   19.800   5.316E+00
   19.900   5.162E+00
   20.000   5.012E+00
   20.100   4.868E+00
   20.200   4.727E+00
   20.300   4.591E+00
   20.400   4.460E+00
   20.500   4.332E+00
   20.600   4.209E+00
   20.700   4.090E+00
   20.800   3.975E+00
   20.900   3.864E+00
   21.000   3.757E+00
   21.100   3.654E+00
   21.200   3.555E+00
   21.300   3.460E+00
   21.400   3.368E+00
   21.500   3.279E+00
   21.600   3.194E+00
   21.700   3.112E+00
   21.800   3.033E+00
   21.900   2.958E+00
   22.000   2.885E+00
   22.100   2.814E+00
   22.200   2.747E+00
   22.300   2.682E+00
   22.400   2.619E+00
   22.500   2.559E+00
   22.600   2.501E+00
   22.700   2.444E+00
   22.800   2.390E+00
   22.900   2.338E+00
   23.000   2.288E+00
   23.100   2.239E+00
   23.200   2.192E+00
   23.300   2.147E+00
   23.400   2.103E+00
   23.500   2.061E+00
   23.600   2.020E+00
   23.700   1.980E+00
   23.800   1.942E+00
   23.900   1.905E+00
   24.000   1.869E+00
   24.100   1.834E+00
   24.200   1.800E+00
   24.300   1.767E+00
   24.400   1.735E+00
   24.500   1.704E+00
   24.600   1.674E+00
   24.700   1.645E+00
   24.800   1.617E+00
   24.900   1.589E+00
   25.000   1.562E+00
   25.100   1.536E+00
   25.200   1.511E+00
   25.300   1.486E+00
   25.400   1.462E+00
   25.500   1.439E+00
   25.600   1.416E+00
   25.700   1.394E+00
   25.800   1.372E+00
   25.900   1.351E+00
   26.000   1.331E+00
   26.100   1.311E+00
   26.200   1.291E+00
   26.300   1.272E+00
   26.400   1.254E+00
   26.500   1.235E+00
   26.600   1.218E+00
   26.700   1.200E+00
   26.800   1.184E+00
   26.900   1.167E+00
   27.000   1.151E+00
   27.100   1.135E+00
   27.200   1.120E+00
   27.300   1.105E+00
   27.400   1.090E+00
   27.500   1.075E+00
   27.600   1.061E+00
   27.700   1.047E+00
   27.800   1.034E+00
   27.900   1.021E+00
   28.000   1.008E+00
   28.100   9.950E-01
   28.200   9.826E-01
   28.300   9.704E-01
   28.400   9.584E-01
   28.500   9.467E-01
   28.600   9.352E-01
   28.700   9.240E-01
   28.800   9.130E-01
   28.900   9.022E-01
   29.000   8.915E-01
   29.100   8.811E-01
   29.200   8.709E-01
   29.300   8.609E-01
   29.400   8.511E-01
   29.500   8.414E-01
   29.600   8.320E-01
   29.700   8.227E-01
   29.800   8.135E-01
   29.900   8.046E-01
   30.000   7.958E-01
 
 Z=  53 A= 138  D1M-QRPA-Inter
 E[MeV]  fQRPA[mb/MeV]
    0.100   1.023E-04
    0.200   4.094E-04
    0.300   9.218E-04
    0.400   1.640E-03
    0.500   2.565E-03
    0.600   3.698E-03
    0.700   5.041E-03
    0.800   6.595E-03
    0.900   8.363E-03
    1.000   1.035E-02
    1.100   1.255E-02
    1.200   1.497E-02
    1.300   1.762E-02
    1.400   2.050E-02
    1.500   2.361E-02
    1.600   2.696E-02
    1.700   3.055E-02
    1.800   3.438E-02
    1.900   3.847E-02
    2.000   4.281E-02
    2.100   4.742E-02
    2.200   5.230E-02
    2.300   5.746E-02
    2.400   6.290E-02
    2.500   6.863E-02
    2.600   7.467E-02
    2.700   8.102E-02
    2.800   8.768E-02
    2.900   9.468E-02
    3.000   1.020E-01
    3.100   1.097E-01
    3.200   1.178E-01
    3.300   1.262E-01
    3.400   1.350E-01
    3.500   1.443E-01
    3.600   1.539E-01
    3.700   1.640E-01
    3.800   1.746E-01
    3.900   1.856E-01
    4.000   1.971E-01
    4.100   2.091E-01
    4.200   2.217E-01
    4.300   2.348E-01
    4.400   2.485E-01
    4.500   2.629E-01
    4.600   2.778E-01
    4.700   2.934E-01
    4.800   3.098E-01
    4.900   3.268E-01
    5.000   3.447E-01
    5.100   3.633E-01
    5.200   3.828E-01
    5.300   4.032E-01
    5.400   4.245E-01
    5.500   4.467E-01
    5.600   4.700E-01
    5.700   4.944E-01
    5.800   5.198E-01
    5.900   5.464E-01
    6.000   5.743E-01
    6.100   6.034E-01
    6.200   6.338E-01
    6.300   6.655E-01
    6.400   6.987E-01
    6.500   7.333E-01
    6.600   7.694E-01
    6.700   8.070E-01
    6.800   8.462E-01
    6.900   8.870E-01
    7.000   9.293E-01
    7.100   9.734E-01
    7.200   1.019E+00
    7.300   1.066E+00
    7.400   1.115E+00
    7.500   1.166E+00
    7.600   1.219E+00
    7.700   1.273E+00
    7.800   1.329E+00
    7.900   1.388E+00
    8.000   1.448E+00
    8.100   1.510E+00
    8.200   1.574E+00
    8.300   1.641E+00
    8.400   1.710E+00
    8.500   1.782E+00
    8.600   1.856E+00
    8.700   1.933E+00
    8.800   2.014E+00
    8.900   2.097E+00
    9.000   2.184E+00
    9.100   2.275E+00
    9.200   2.369E+00
    9.300   2.467E+00
    9.400   2.570E+00
    9.500   2.677E+00
    9.600   2.788E+00
    9.700   2.905E+00
    9.800   3.027E+00
    9.900   3.154E+00
   10.000   3.286E+00
   10.100   3.424E+00
   10.200   3.569E+00
   10.300   3.720E+00
   10.400   3.878E+00
   10.500   4.043E+00
   10.600   4.215E+00
   10.700   4.395E+00
   10.800   4.583E+00
   10.900   4.779E+00
   11.000   4.985E+00
   11.100   5.200E+00
   11.200   5.426E+00
   11.300   5.661E+00
   11.400   5.908E+00
   11.500   6.167E+00
   11.600   6.438E+00
   11.700   6.721E+00
   11.800   7.018E+00
   11.900   7.329E+00
   12.000   7.654E+00
   12.100   7.993E+00
   12.200   8.346E+00
   12.300   8.715E+00
   12.400   9.098E+00
   12.500   9.495E+00
   12.600   9.906E+00
   12.700   1.033E+01
   12.800   1.076E+01
   12.900   1.121E+01
   13.000   1.166E+01
   13.100   1.212E+01
   13.200   1.258E+01
   13.300   1.305E+01
   13.400   1.350E+01
   13.500   1.395E+01
   13.600   1.439E+01
   13.700   1.481E+01
   13.800   1.521E+01
   13.900   1.559E+01
   14.000   1.593E+01
   14.100   1.625E+01
   14.200   1.652E+01
   14.300   1.675E+01
   14.400   1.693E+01
   14.500   1.707E+01
   14.600   1.716E+01
   14.700   1.720E+01
   14.800   1.719E+01
   14.900   1.713E+01
   15.000   1.703E+01
   15.100   1.688E+01
   15.200   1.669E+01
   15.300   1.645E+01
   15.400   1.619E+01
   15.500   1.590E+01
   15.600   1.558E+01
   15.700   1.523E+01
   15.800   1.488E+01
   15.900   1.450E+01
   16.000   1.412E+01
   16.100   1.374E+01
   16.200   1.335E+01
   16.300   1.296E+01
   16.400   1.258E+01
   16.500   1.220E+01
   16.600   1.182E+01
   16.700   1.146E+01
   16.800   1.110E+01
   16.900   1.075E+01
   17.000   1.042E+01
   17.100   1.009E+01
   17.200   9.776E+00
   17.300   9.472E+00
   17.400   9.177E+00
   17.500   8.893E+00
   17.600   8.619E+00
   17.700   8.355E+00
   17.800   8.099E+00
   17.900   7.853E+00
   18.000   7.616E+00
   18.100   7.386E+00
   18.200   7.165E+00
   18.300   6.951E+00
   18.400   6.745E+00
   18.500   6.545E+00
   18.600   6.353E+00
   18.700   6.166E+00
   18.800   5.986E+00
   18.900   5.812E+00
   19.000   5.643E+00
   19.100   5.481E+00
   19.200   5.323E+00
   19.300   5.171E+00
   19.400   5.024E+00
   19.500   4.881E+00
   19.600   4.744E+00
   19.700   4.611E+00
   19.800   4.482E+00
   19.900   4.358E+00
   20.000   4.238E+00
   20.100   4.122E+00
   20.200   4.010E+00
   20.300   3.901E+00
   20.400   3.797E+00
   20.500   3.696E+00
   20.600   3.598E+00
   20.700   3.504E+00
   20.800   3.413E+00
   20.900   3.326E+00
   21.000   3.241E+00
   21.100   3.160E+00
   21.200   3.081E+00
   21.300   3.005E+00
   21.400   2.932E+00
   21.500   2.862E+00
   21.600   2.794E+00
   21.700   2.728E+00
   21.800   2.665E+00
   21.900   2.604E+00
   22.000   2.545E+00
   22.100   2.488E+00
   22.200   2.434E+00
   22.300   2.381E+00
   22.400   2.330E+00
   22.500   2.280E+00
   22.600   2.232E+00
   22.700   2.186E+00
   22.800   2.142E+00
   22.900   2.098E+00
   23.000   2.056E+00
   23.100   2.016E+00
   23.200   1.977E+00
   23.300   1.939E+00
   23.400   1.902E+00
   23.500   1.866E+00
   23.600   1.832E+00
   23.700   1.798E+00
   23.800   1.765E+00
   23.900   1.734E+00
   24.000   1.703E+00
   24.100   1.673E+00
   24.200   1.644E+00
   24.300   1.616E+00
   24.400   1.589E+00
   24.500   1.562E+00
   24.600   1.536E+00
   24.700   1.511E+00
   24.800   1.486E+00
   24.900   1.462E+00
   25.000   1.439E+00
   25.100   1.416E+00
   25.200   1.394E+00
   25.300   1.372E+00
   25.400   1.351E+00
   25.500   1.331E+00
   25.600   1.311E+00
   25.700   1.291E+00
   25.800   1.272E+00
   25.900   1.254E+00
   26.000   1.236E+00
   26.100   1.218E+00
   26.200   1.201E+00
   26.300   1.184E+00
   26.400   1.167E+00
   26.500   1.151E+00
   26.600   1.135E+00
   26.700   1.120E+00
   26.800   1.105E+00
   26.900   1.090E+00
   27.000   1.075E+00
   27.100   1.061E+00
   27.200   1.047E+00
   27.300   1.034E+00
   27.400   1.020E+00
   27.500   1.007E+00
   27.600   9.947E-01
   27.700   9.822E-01
   27.800   9.700E-01
   27.900   9.580E-01
   28.000   9.463E-01
   28.100   9.348E-01
   28.200   9.235E-01
   28.300   9.124E-01
   28.400   9.016E-01
   28.500   8.910E-01
   28.600   8.805E-01
   28.700   8.703E-01
   28.800   8.602E-01
   28.900   8.504E-01
   29.000   8.407E-01
   29.100   8.312E-01
   29.200   8.219E-01
   29.300   8.127E-01
   29.400   8.037E-01
   29.500   7.949E-01
   29.600   7.862E-01
   29.700   7.777E-01
   29.800   7.693E-01
   29.900   7.611E-01
   30.000   7.530E-01
 
 Z=  53 A= 139  D1M-QRPA-Inter
 E[MeV]  fQRPA[mb/MeV]
    0.100   1.349E-04
    0.200   5.396E-04
    0.300   1.215E-03
    0.400   2.161E-03
    0.500   3.381E-03
    0.600   4.874E-03
    0.700   6.644E-03
    0.800   8.692E-03
    0.900   1.102E-02
    1.000   1.364E-02
    1.100   1.654E-02
    1.200   1.973E-02
    1.300   2.322E-02
    1.400   2.702E-02
    1.500   3.111E-02
    1.600   3.552E-02
    1.700   4.025E-02
    1.800   4.530E-02
    1.900   5.068E-02
    2.000   5.640E-02
    2.100   6.246E-02
    2.200   6.888E-02
    2.300   7.566E-02
    2.400   8.281E-02
    2.500   9.034E-02
    2.600   9.827E-02
    2.700   1.066E-01
    2.800   1.153E-01
    2.900   1.245E-01
    3.000   1.341E-01
    3.100   1.442E-01
    3.200   1.547E-01
    3.300   1.658E-01
    3.400   1.773E-01
    3.500   1.894E-01
    3.600   2.019E-01
    3.700   2.151E-01
    3.800   2.288E-01
    3.900   2.431E-01
    4.000   2.581E-01
    4.100   2.737E-01
    4.200   2.899E-01
    4.300   3.069E-01
    4.400   3.246E-01
    4.500   3.431E-01
    4.600   3.623E-01
    4.700   3.824E-01
    4.800   4.033E-01
    4.900   4.252E-01
    5.000   4.480E-01
    5.100   4.718E-01
    5.200   4.966E-01
    5.300   5.225E-01
    5.400   5.496E-01
    5.500   5.778E-01
    5.600   6.073E-01
    5.700   6.380E-01
    5.800   6.702E-01
    5.900   7.037E-01
    6.000   7.387E-01
    6.100   7.753E-01
    6.200   8.135E-01
    6.300   8.533E-01
    6.400   8.949E-01
    6.500   9.382E-01
    6.600   9.835E-01
    6.700   1.031E+00
    6.800   1.080E+00
    6.900   1.131E+00
    7.000   1.184E+00
    7.100   1.240E+00
    7.200   1.297E+00
    7.300   1.357E+00
    7.400   1.419E+00
    7.500   1.484E+00
    7.600   1.551E+00
    7.700   1.621E+00
    7.800   1.693E+00
    7.900   1.767E+00
    8.000   1.845E+00
    8.100   1.925E+00
    8.200   2.008E+00
    8.300   2.094E+00
    8.400   2.183E+00
    8.500   2.276E+00
    8.600   2.372E+00
    8.700   2.472E+00
    8.800   2.576E+00
    8.900   2.684E+00
    9.000   2.797E+00
    9.100   2.914E+00
    9.200   3.036E+00
    9.300   3.164E+00
    9.400   3.297E+00
    9.500   3.435E+00
    9.600   3.581E+00
    9.700   3.732E+00
    9.800   3.890E+00
    9.900   4.056E+00
   10.000   4.229E+00
   10.100   4.409E+00
   10.200   4.598E+00
   10.300   4.796E+00
   10.400   5.002E+00
   10.500   5.218E+00
   10.600   5.444E+00
   10.700   5.680E+00
   10.800   5.927E+00
   10.900   6.185E+00
   11.000   6.455E+00
   11.100   6.737E+00
   11.200   7.031E+00
   11.300   7.340E+00
   11.400   7.661E+00
   11.500   7.997E+00
   11.600   8.348E+00
   11.700   8.714E+00
   11.800   9.094E+00
   11.900   9.491E+00
   12.000   9.902E+00
   12.100   1.033E+01
   12.200   1.077E+01
   12.300   1.123E+01
   12.400   1.169E+01
   12.500   1.217E+01
   12.600   1.266E+01
   12.700   1.316E+01
   12.800   1.367E+01
   12.900   1.418E+01
   13.000   1.468E+01
   13.100   1.519E+01
   13.200   1.568E+01
   13.300   1.617E+01
   13.400   1.664E+01
   13.500   1.709E+01
   13.600   1.751E+01
   13.700   1.791E+01
   13.800   1.828E+01
   13.900   1.860E+01
   14.000   1.889E+01
   14.100   1.913E+01
   14.200   1.933E+01
   14.300   1.948E+01
   14.400   1.958E+01
   14.500   1.963E+01
   14.600   1.963E+01
   14.700   1.958E+01
   14.800   1.949E+01
   14.900   1.935E+01
   15.000   1.916E+01
   15.100   1.893E+01
   15.200   1.867E+01
   15.300   1.837E+01
   15.400   1.805E+01
   15.500   1.769E+01
   15.600   1.732E+01
   15.700   1.693E+01
   15.800   1.652E+01
   15.900   1.610E+01
   16.000   1.567E+01
   16.100   1.524E+01
   16.200   1.481E+01
   16.300   1.438E+01
   16.400   1.395E+01
   16.500   1.353E+01
   16.600   1.311E+01
   16.700   1.270E+01
   16.800   1.229E+01
   16.900   1.190E+01
   17.000   1.152E+01
   17.100   1.115E+01
   17.200   1.079E+01
   17.300   1.044E+01
   17.400   1.010E+01
   17.500   9.769E+00
   17.600   9.452E+00
   17.700   9.147E+00
   17.800   8.853E+00
   17.900   8.570E+00
   18.000   8.297E+00
   18.100   8.035E+00
   18.200   7.782E+00
   18.300   7.540E+00
   18.400   7.307E+00
   18.500   7.082E+00
   18.600   6.867E+00
   18.700   6.660E+00
   18.800   6.461E+00
   18.900   6.270E+00
   19.000   6.086E+00
   19.100   5.910E+00
   19.200   5.740E+00
   19.300   5.578E+00
   19.400   5.421E+00
   19.500   5.270E+00
   19.600   5.126E+00
   19.700   4.987E+00
   19.800   4.853E+00
   19.900   4.724E+00
   20.000   4.601E+00
   20.100   4.482E+00
   20.200   4.367E+00
   20.300   4.257E+00
   20.400   4.151E+00
   20.500   4.048E+00
   20.600   3.950E+00
   20.700   3.855E+00
   20.800   3.764E+00
   20.900   3.675E+00
   21.000   3.590E+00
   21.100   3.508E+00
   21.200   3.429E+00
   21.300   3.352E+00
   21.400   3.278E+00
   21.500   3.207E+00
   21.600   3.138E+00
   21.700   3.071E+00
   21.800   3.007E+00
   21.900   2.944E+00
   22.000   2.884E+00
   22.100   2.825E+00
   22.200   2.769E+00
   22.300   2.714E+00
   22.400   2.660E+00
   22.500   2.609E+00
   22.600   2.559E+00
   22.700   2.510E+00
   22.800   2.463E+00
   22.900   2.418E+00
   23.000   2.373E+00
   23.100   2.330E+00
   23.200   2.288E+00
   23.300   2.248E+00
   23.400   2.208E+00
   23.500   2.170E+00
   23.600   2.133E+00
   23.700   2.096E+00
   23.800   2.061E+00
   23.900   2.026E+00
   24.000   1.993E+00
   24.100   1.960E+00
   24.200   1.929E+00
   24.300   1.898E+00
   24.400   1.867E+00
   24.500   1.838E+00
   24.600   1.809E+00
   24.700   1.781E+00
   24.800   1.754E+00
   24.900   1.727E+00
   25.000   1.701E+00
   25.100   1.676E+00
   25.200   1.651E+00
   25.300   1.627E+00
   25.400   1.604E+00
   25.500   1.581E+00
   25.600   1.558E+00
   25.700   1.536E+00
   25.800   1.514E+00
   25.900   1.493E+00
   26.000   1.473E+00
   26.100   1.453E+00
   26.200   1.433E+00
   26.300   1.414E+00
   26.400   1.395E+00
   26.500   1.377E+00
   26.600   1.358E+00
   26.700   1.341E+00
   26.800   1.323E+00
   26.900   1.307E+00
   27.000   1.290E+00
   27.100   1.274E+00
   27.200   1.258E+00
   27.300   1.242E+00
   27.400   1.227E+00
   27.500   1.212E+00
   27.600   1.197E+00
   27.700   1.183E+00
   27.800   1.168E+00
   27.900   1.155E+00
   28.000   1.141E+00
   28.100   1.128E+00
   28.200   1.115E+00
   28.300   1.102E+00
   28.400   1.089E+00
   28.500   1.077E+00
   28.600   1.064E+00
   28.700   1.053E+00
   28.800   1.041E+00
   28.900   1.029E+00
   29.000   1.018E+00
   29.100   1.007E+00
   29.200   9.959E-01
   29.300   9.851E-01
   29.400   9.746E-01
   29.500   9.642E-01
   29.600   9.540E-01
   29.700   9.440E-01
   29.800   9.341E-01
   29.900   9.244E-01
   30.000   9.149E-01
 
 Z=  53 A= 140  D1M-QRPA-Inter
 E[MeV]  fQRPA[mb/MeV]
    0.100   1.381E-04
    0.200   5.525E-04
    0.300   1.244E-03
    0.400   2.213E-03
    0.500   3.461E-03
    0.600   4.990E-03
    0.700   6.801E-03
    0.800   8.897E-03
    0.900   1.128E-02
    1.000   1.395E-02
    1.100   1.692E-02
    1.200   2.019E-02
    1.300   2.375E-02
    1.400   2.762E-02
    1.500   3.180E-02
    1.600   3.630E-02
    1.700   4.112E-02
    1.800   4.626E-02
    1.900   5.174E-02
    2.000   5.756E-02
    2.100   6.372E-02
    2.200   7.024E-02
    2.300   7.712E-02
    2.400   8.438E-02
    2.500   9.202E-02
    2.600   1.000E-01
    2.700   1.085E-01
    2.800   1.173E-01
    2.900   1.266E-01
    3.000   1.363E-01
    3.100   1.465E-01
    3.200   1.572E-01
    3.300   1.683E-01
    3.400   1.800E-01
    3.500   1.922E-01
    3.600   2.049E-01
    3.700   2.182E-01
    3.800   2.321E-01
    3.900   2.466E-01
    4.000   2.618E-01
    4.100   2.776E-01
    4.200   2.941E-01
    4.300   3.114E-01
    4.400   3.293E-01
    4.500   3.481E-01
    4.600   3.677E-01
    4.700   3.882E-01
    4.800   4.096E-01
    4.900   4.319E-01
    5.000   4.551E-01
    5.100   4.794E-01
    5.200   5.048E-01
    5.300   5.313E-01
    5.400   5.590E-01
    5.500   5.879E-01
    5.600   6.181E-01
    5.700   6.496E-01
    5.800   6.825E-01
    5.900   7.168E-01
    6.000   7.527E-01
    6.100   7.901E-01
    6.200   8.291E-01
    6.300   8.699E-01
    6.400   9.124E-01
    6.500   9.567E-01
    6.600   1.003E+00
    6.700   1.051E+00
    6.800   1.101E+00
    6.900   1.153E+00
    7.000   1.207E+00
    7.100   1.264E+00
    7.200   1.322E+00
    7.300   1.383E+00
    7.400   1.446E+00
    7.500   1.511E+00
    7.600   1.579E+00
    7.700   1.650E+00
    7.800   1.723E+00
    7.900   1.799E+00
    8.000   1.877E+00
    8.100   1.958E+00
    8.200   2.043E+00
    8.300   2.131E+00
    8.400   2.222E+00
    8.500   2.316E+00
    8.600   2.415E+00
    8.700   2.517E+00
    8.800   2.623E+00
    8.900   2.734E+00
    9.000   2.850E+00
    9.100   2.971E+00
    9.200   3.097E+00
    9.300   3.228E+00
    9.400   3.365E+00
    9.500   3.509E+00
    9.600   3.659E+00
    9.700   3.815E+00
    9.800   3.979E+00
    9.900   4.150E+00
   10.000   4.330E+00
   10.100   4.517E+00
   10.200   4.713E+00
   10.300   4.918E+00
   10.400   5.132E+00
   10.500   5.356E+00
   10.600   5.589E+00
   10.700   5.834E+00
   10.800   6.089E+00
   10.900   6.356E+00
   11.000   6.634E+00
   11.100   6.924E+00
   11.200   7.227E+00
   11.300   7.542E+00
   11.400   7.870E+00
   11.500   8.210E+00
   11.600   8.564E+00
   11.700   8.930E+00
   11.800   9.308E+00
   11.900   9.698E+00
   12.000   1.010E+01
   12.100   1.051E+01
   12.200   1.093E+01
   12.300   1.136E+01
   12.400   1.179E+01
   12.500   1.223E+01
   12.600   1.267E+01
   12.700   1.311E+01
   12.800   1.354E+01
   12.900   1.396E+01
   13.000   1.437E+01
   13.100   1.477E+01
   13.200   1.515E+01
   13.300   1.551E+01
   13.400   1.584E+01
   13.500   1.614E+01
   13.600   1.641E+01
   13.700   1.664E+01
   13.800   1.683E+01
   13.900   1.699E+01
   14.000   1.710E+01
   14.100   1.718E+01
   14.200   1.720E+01
   14.300   1.719E+01
   14.400   1.714E+01
   14.500   1.704E+01
   14.600   1.691E+01
   14.700   1.673E+01
   14.800   1.653E+01
   14.900   1.629E+01
   15.000   1.603E+01
   15.100   1.574E+01
   15.200   1.543E+01
   15.300   1.510E+01
   15.400   1.475E+01
   15.500   1.439E+01
   15.600   1.403E+01
   15.700   1.365E+01
   15.800   1.328E+01
   15.900   1.290E+01
   16.000   1.252E+01
   16.100   1.215E+01
   16.200   1.178E+01
   16.300   1.142E+01
   16.400   1.106E+01
   16.500   1.071E+01
   16.600   1.037E+01
   16.700   1.003E+01
   16.800   9.712E+00
   16.900   9.399E+00
   17.000   9.096E+00
   17.100   8.803E+00
   17.200   8.520E+00
   17.300   8.247E+00
   17.400   7.984E+00
   17.500   7.731E+00
   17.600   7.487E+00
   17.700   7.252E+00
   17.800   7.026E+00
   17.900   6.809E+00
   18.000   6.600E+00
   18.100   6.400E+00
   18.200   6.207E+00
   18.300   6.022E+00
   18.400   5.845E+00
   18.500   5.674E+00
   18.600   5.510E+00
   18.700   5.352E+00
   18.800   5.200E+00
   18.900   5.055E+00
   19.000   4.915E+00
   19.100   4.780E+00
   19.200   4.651E+00
   19.300   4.526E+00
   19.400   4.407E+00
   19.500   4.291E+00
   19.600   4.181E+00
   19.700   4.074E+00
   19.800   3.971E+00
   19.900   3.872E+00
   20.000   3.777E+00
   20.100   3.685E+00
   20.200   3.596E+00
   20.300   3.511E+00
   20.400   3.429E+00
   20.500   3.349E+00
   20.600   3.272E+00
   20.700   3.198E+00
   20.800   3.127E+00
   20.900   3.058E+00
   21.000   2.991E+00
   21.100   2.927E+00
   21.200   2.864E+00
   21.300   2.804E+00
   21.400   2.746E+00
   21.500   2.689E+00
   21.600   2.634E+00
   21.700   2.581E+00
   21.800   2.530E+00
   21.900   2.480E+00
   22.000   2.432E+00
   22.100   2.385E+00
   22.200   2.340E+00
   22.300   2.296E+00
   22.400   2.253E+00
   22.500   2.212E+00
   22.600   2.171E+00
   22.700   2.132E+00
   22.800   2.094E+00
   22.900   2.057E+00
   23.000   2.021E+00
   23.100   1.987E+00
   23.200   1.953E+00
   23.300   1.919E+00
   23.400   1.887E+00
   23.500   1.856E+00
   23.600   1.825E+00
   23.700   1.796E+00
   23.800   1.767E+00
   23.900   1.739E+00
   24.000   1.711E+00
   24.100   1.684E+00
   24.200   1.658E+00
   24.300   1.633E+00
   24.400   1.608E+00
   24.500   1.583E+00
   24.600   1.560E+00
   24.700   1.537E+00
   24.800   1.514E+00
   24.900   1.492E+00
   25.000   1.470E+00
   25.100   1.449E+00
   25.200   1.429E+00
   25.300   1.409E+00
   25.400   1.389E+00
   25.500   1.370E+00
   25.600   1.351E+00
   25.700   1.333E+00
   25.800   1.315E+00
   25.900   1.297E+00
   26.000   1.280E+00
   26.100   1.263E+00
   26.200   1.246E+00
   26.300   1.230E+00
   26.400   1.214E+00
   26.500   1.199E+00
   26.600   1.184E+00
   26.700   1.169E+00
   26.800   1.154E+00
   26.900   1.140E+00
   27.000   1.126E+00
   27.100   1.112E+00
   27.200   1.099E+00
   27.300   1.085E+00
   27.400   1.073E+00
   27.500   1.060E+00
   27.600   1.047E+00
   27.700   1.035E+00
   27.800   1.023E+00
   27.900   1.011E+00
   28.000   9.998E-01
   28.100   9.884E-01
   28.200   9.772E-01
   28.300   9.663E-01
   28.400   9.555E-01
   28.500   9.450E-01
   28.600   9.346E-01
   28.700   9.244E-01
   28.800   9.144E-01
   28.900   9.045E-01
   29.000   8.949E-01
   29.100   8.854E-01
   29.200   8.760E-01
   29.300   8.668E-01
   29.400   8.578E-01
   29.500   8.489E-01
   29.600   8.401E-01
   29.700   8.315E-01
   29.800   8.231E-01
   29.900   8.148E-01
   30.000   8.066E-01
 
 Z=  53 A= 141  D1M-QRPA-Inter
 E[MeV]  fQRPA[mb/MeV]
    0.100   1.848E-04
    0.200   7.393E-04
    0.300   1.664E-03
    0.400   2.961E-03
    0.500   4.630E-03
    0.600   6.675E-03
    0.700   9.097E-03
    0.800   1.190E-02
    0.900   1.509E-02
    1.000   1.866E-02
    1.100   2.262E-02
    1.200   2.698E-02
    1.300   3.174E-02
    1.400   3.691E-02
    1.500   4.249E-02
    1.600   4.848E-02
    1.700   5.490E-02
    1.800   6.174E-02
    1.900   6.903E-02
    2.000   7.676E-02
    2.100   8.495E-02
    2.200   9.361E-02
    2.300   1.027E-01
    2.400   1.124E-01
    2.500   1.225E-01
    2.600   1.331E-01
    2.700   1.443E-01
    2.800   1.560E-01
    2.900   1.683E-01
    3.000   1.811E-01
    3.100   1.946E-01
    3.200   2.087E-01
    3.300   2.234E-01
    3.400   2.388E-01
    3.500   2.549E-01
    3.600   2.718E-01
    3.700   2.894E-01
    3.800   3.077E-01
    3.900   3.270E-01
    4.000   3.470E-01
    4.100   3.680E-01
    4.200   3.899E-01
    4.300   4.128E-01
    4.400   4.367E-01
    4.500   4.616E-01
    4.600   4.877E-01
    4.700   5.150E-01
    4.800   5.434E-01
    4.900   5.732E-01
    5.000   6.042E-01
    5.100   6.367E-01
    5.200   6.706E-01
    5.300   7.060E-01
    5.400   7.430E-01
    5.500   7.817E-01
    5.600   8.221E-01
    5.700   8.642E-01
    5.800   9.082E-01
    5.900   9.542E-01
    6.000   1.002E+00
    6.100   1.052E+00
    6.200   1.104E+00
    6.300   1.159E+00
    6.400   1.216E+00
    6.500   1.275E+00
    6.600   1.336E+00
    6.700   1.400E+00
    6.800   1.467E+00
    6.900   1.536E+00
    7.000   1.608E+00
    7.100   1.683E+00
    7.200   1.761E+00
    7.300   1.841E+00
    7.400   1.925E+00
    7.500   2.012E+00
    7.600   2.102E+00
    7.700   2.195E+00
    7.800   2.292E+00
    7.900   2.392E+00
    8.000   2.496E+00
    8.100   2.604E+00
    8.200   2.717E+00
    8.300   2.833E+00
    8.400   2.955E+00
    8.500   3.081E+00
    8.600   3.212E+00
    8.700   3.349E+00
    8.800   3.492E+00
    8.900   3.640E+00
    9.000   3.796E+00
    9.100   3.958E+00
    9.200   4.127E+00
    9.300   4.304E+00
    9.400   4.489E+00
    9.500   4.683E+00
    9.600   4.885E+00
    9.700   5.097E+00
    9.800   5.319E+00
    9.900   5.551E+00
   10.000   5.793E+00
   10.100   6.047E+00
   10.200   6.312E+00
   10.300   6.589E+00
   10.400   6.880E+00
   10.500   7.183E+00
   10.600   7.499E+00
   10.700   7.830E+00
   10.800   8.175E+00
   10.900   8.535E+00
   11.000   8.910E+00
   11.100   9.301E+00
   11.200   9.706E+00
   11.300   1.013E+01
   11.400   1.056E+01
   11.500   1.101E+01
   11.600   1.148E+01
   11.700   1.196E+01
   11.800   1.245E+01
   11.900   1.295E+01
   12.000   1.346E+01
   12.100   1.398E+01
   12.200   1.450E+01
   12.300   1.502E+01
   12.400   1.554E+01
   12.500   1.606E+01
   12.600   1.656E+01
   12.700   1.705E+01
   12.800   1.752E+01
   12.900   1.797E+01
   13.000   1.839E+01
   13.100   1.878E+01
   13.200   1.912E+01
   13.300   1.943E+01
   13.400   1.970E+01
   13.500   1.992E+01
   13.600   2.008E+01
   13.700   2.020E+01
   13.800   2.027E+01
   13.900   2.028E+01
   14.000   2.024E+01
   14.100   2.015E+01
   14.200   2.001E+01
   14.300   1.983E+01
   14.400   1.960E+01
   14.500   1.933E+01
   14.600   1.903E+01
   14.700   1.869E+01
   14.800   1.832E+01
   14.900   1.793E+01
   15.000   1.752E+01
   15.100   1.710E+01
   15.200   1.666E+01
   15.300   1.621E+01
   15.400   1.576E+01
   15.500   1.530E+01
   15.600   1.485E+01
   15.700   1.439E+01
   15.800   1.395E+01
   15.900   1.351E+01
   16.000   1.308E+01
   16.100   1.265E+01
   16.200   1.224E+01
   16.300   1.184E+01
   16.400   1.145E+01
   16.500   1.108E+01
   16.600   1.071E+01
   16.700   1.036E+01
   16.800   1.003E+01
   16.900   9.700E+00
   17.000   9.387E+00
   17.100   9.086E+00
   17.200   8.796E+00
   17.300   8.518E+00
   17.400   8.251E+00
   17.500   7.995E+00
   17.600   7.749E+00
   17.700   7.513E+00
   17.800   7.287E+00
   17.900   7.070E+00
   18.000   6.862E+00
   18.100   6.662E+00
   18.200   6.470E+00
   18.300   6.286E+00
   18.400   6.109E+00
   18.500   5.940E+00
   18.600   5.777E+00
   18.700   5.620E+00
   18.800   5.470E+00
   18.900   5.325E+00
   19.000   5.186E+00
   19.100   5.053E+00
   19.200   4.924E+00
   19.300   4.800E+00
   19.400   4.681E+00
   19.500   4.566E+00
   19.600   4.456E+00
   19.700   4.349E+00
   19.800   4.246E+00
   19.900   4.147E+00
   20.000   4.052E+00
   20.100   3.959E+00
   20.200   3.870E+00
   20.300   3.784E+00
   20.400   3.701E+00
   20.500   3.621E+00
   20.600   3.543E+00
   20.700   3.468E+00
   20.800   3.395E+00
   20.900   3.325E+00
   21.000   3.257E+00
   21.100   3.191E+00
   21.200   3.127E+00
   21.300   3.065E+00
   21.400   3.005E+00
   21.500   2.947E+00
   21.600   2.890E+00
   21.700   2.835E+00
   21.800   2.782E+00
   21.900   2.731E+00
   22.000   2.680E+00
   22.100   2.632E+00
   22.200   2.584E+00
   22.300   2.538E+00
   22.400   2.494E+00
   22.500   2.450E+00
   22.600   2.408E+00
   22.700   2.367E+00
   22.800   2.327E+00
   22.900   2.288E+00
   23.000   2.250E+00
   23.100   2.213E+00
   23.200   2.177E+00
   23.300   2.142E+00
   23.400   2.108E+00
   23.500   2.074E+00
   23.600   2.042E+00
   23.700   2.010E+00
   23.800   1.979E+00
   23.900   1.949E+00
   24.000   1.920E+00
   24.100   1.891E+00
   24.200   1.863E+00
   24.300   1.836E+00
   24.400   1.809E+00
   24.500   1.783E+00
   24.600   1.757E+00
   24.700   1.732E+00
   24.800   1.708E+00
   24.900   1.684E+00
   25.000   1.661E+00
   25.100   1.638E+00
   25.200   1.615E+00
   25.300   1.594E+00
   25.400   1.572E+00
   25.500   1.551E+00
   25.600   1.531E+00
   25.700   1.511E+00
   25.800   1.491E+00
   25.900   1.472E+00
   26.000   1.453E+00
   26.100   1.435E+00
   26.200   1.417E+00
   26.300   1.399E+00
   26.400   1.382E+00
   26.500   1.364E+00
   26.600   1.348E+00
   26.700   1.331E+00
   26.800   1.315E+00
   26.900   1.300E+00
   27.000   1.284E+00
   27.100   1.269E+00
   27.200   1.254E+00
   27.300   1.240E+00
   27.400   1.225E+00
   27.500   1.211E+00
   27.600   1.197E+00
   27.700   1.184E+00
   27.800   1.171E+00
   27.900   1.158E+00
   28.000   1.145E+00
   28.100   1.132E+00
   28.200   1.120E+00
   28.300   1.108E+00
   28.400   1.096E+00
   28.500   1.084E+00
   28.600   1.072E+00
   28.700   1.061E+00
   28.800   1.050E+00
   28.900   1.039E+00
   29.000   1.028E+00
   29.100   1.017E+00
   29.200   1.007E+00
   29.300   9.967E-01
   29.400   9.866E-01
   29.500   9.767E-01
   29.600   9.669E-01
   29.700   9.573E-01
   29.800   9.478E-01
   29.900   9.385E-01
   30.000   9.293E-01
 
 Z=  53 A= 142  D1M-QRPA-Inter
 E[MeV]  fQRPA[mb/MeV]
    0.100   1.039E-03
    0.200   2.470E-03
    0.300   4.084E-03
    0.400   5.867E-03
    0.500   7.829E-03
    0.600   9.986E-03
    0.700   1.235E-02
    0.800   1.494E-02
    0.900   1.777E-02
    1.000   2.085E-02
    1.100   2.418E-02
    1.200   2.780E-02
    1.300   3.171E-02
    1.400   3.592E-02
    1.500   4.045E-02
    1.600   4.532E-02
    1.700   5.054E-02
    1.800   5.613E-02
    1.900   6.210E-02
    2.000   6.847E-02
    2.100   7.525E-02
    2.200   8.247E-02
    2.300   9.015E-02
    2.400   9.831E-02
    2.500   1.070E-01
    2.600   1.162E-01
    2.700   1.260E-01
    2.800   1.364E-01
    2.900   1.474E-01
    3.000   1.591E-01
    3.100   1.716E-01
    3.200   1.848E-01
    3.300   1.989E-01
    3.400   2.138E-01
    3.500   2.297E-01
    3.600   2.466E-01
    3.700   2.646E-01
    3.800   2.836E-01
    3.900   3.039E-01
    4.000   3.254E-01
    4.100   3.481E-01
    4.200   3.722E-01
    4.300   3.977E-01
    4.400   4.246E-01
    4.500   4.529E-01
    4.600   4.825E-01
    4.700   5.135E-01
    4.800   5.458E-01
    4.900   5.794E-01
    5.000   6.140E-01
    5.100   6.496E-01
    5.200   6.859E-01
    5.300   7.230E-01
    5.400   7.606E-01
    5.500   7.986E-01
    5.600   8.370E-01
    5.700   8.757E-01
    5.800   9.148E-01
    5.900   9.543E-01
    6.000   9.944E-01
    6.100   1.035E+00
    6.200   1.077E+00
    6.300   1.120E+00
    6.400   1.164E+00
    6.500   1.209E+00
    6.600   1.256E+00
    6.700   1.305E+00
    6.800   1.355E+00
    6.900   1.408E+00
    7.000   1.463E+00
    7.100   1.521E+00
    7.200   1.581E+00
    7.300   1.644E+00
    7.400   1.710E+00
    7.500   1.779E+00
    7.600   1.850E+00
    7.700   1.925E+00
    7.800   2.003E+00
    7.900   2.085E+00
    8.000   2.170E+00
    8.100   2.258E+00
    8.200   2.350E+00
    8.300   2.446E+00
    8.400   2.546E+00
    8.500   2.650E+00
    8.600   2.759E+00
    8.700   2.873E+00
    8.800   2.992E+00
    8.900   3.116E+00
    9.000   3.246E+00
    9.100   3.382E+00
    9.200   3.525E+00
    9.300   3.675E+00
    9.400   3.832E+00
    9.500   3.997E+00
    9.600   4.172E+00
    9.700   4.355E+00
    9.800   4.550E+00
    9.900   4.755E+00
   10.000   4.973E+00
   10.100   5.204E+00
   10.200   5.448E+00
   10.300   5.708E+00
   10.400   5.984E+00
   10.500   6.276E+00
   10.600   6.585E+00
   10.700   6.913E+00
   10.800   7.259E+00
   10.900   7.624E+00
   11.000   8.009E+00
   11.100   8.412E+00
   11.200   8.833E+00
   11.300   9.271E+00
   11.400   9.724E+00
   11.500   1.019E+01
   11.600   1.066E+01
   11.700   1.114E+01
   11.800   1.162E+01
   11.900   1.209E+01
   12.000   1.256E+01
   12.100   1.300E+01
   12.200   1.343E+01
   12.300   1.384E+01
   12.400   1.422E+01
   12.500   1.457E+01
   12.600   1.490E+01
   12.700   1.520E+01
   12.800   1.548E+01
   12.900   1.573E+01
   13.000   1.596E+01
   13.100   1.616E+01
   13.200   1.635E+01
   13.300   1.650E+01
   13.400   1.663E+01
   13.500   1.674E+01
   13.600   1.681E+01
   13.700   1.685E+01
   13.800   1.686E+01
   13.900   1.683E+01
   14.000   1.677E+01
   14.100   1.667E+01
   14.200   1.654E+01
   14.300   1.637E+01
   14.400   1.617E+01
   14.500   1.594E+01
   14.600   1.569E+01
   14.700   1.542E+01
   14.800   1.513E+01
   14.900   1.483E+01
   15.000   1.453E+01
   15.100   1.423E+01
   15.200   1.392E+01
   15.300   1.361E+01
   15.400   1.330E+01
   15.500   1.299E+01
   15.600   1.268E+01
   15.700   1.237E+01
   15.800   1.205E+01
   15.900   1.174E+01
   16.000   1.142E+01
   16.100   1.110E+01
   16.200   1.079E+01
   16.300   1.047E+01
   16.400   1.017E+01
   16.500   9.865E+00
   16.600   9.572E+00
   16.700   9.288E+00
   16.800   9.014E+00
   16.900   8.751E+00
   17.000   8.499E+00
   17.100   8.259E+00
   17.200   8.030E+00
   17.300   7.814E+00
   17.400   7.608E+00
   17.500   7.413E+00
   17.600   7.227E+00
   17.700   7.050E+00
   17.800   6.881E+00
   17.900   6.718E+00
   18.000   6.561E+00
   18.100   6.408E+00
   18.200   6.259E+00
   18.300   6.112E+00
   18.400   5.969E+00
   18.500   5.827E+00
   18.600   5.687E+00
   18.700   5.550E+00
   18.800   5.414E+00
   18.900   5.281E+00
   19.000   5.150E+00
   19.100   5.023E+00
   19.200   4.898E+00
   19.300   4.776E+00
   19.400   4.657E+00
   19.500   4.542E+00
   19.600   4.430E+00
   19.700   4.322E+00
   19.800   4.217E+00
   19.900   4.116E+00
   20.000   4.018E+00
   20.100   3.923E+00
   20.200   3.832E+00
   20.300   3.744E+00
   20.400   3.659E+00
   20.500   3.576E+00
   20.600   3.497E+00
   20.700   3.420E+00
   20.800   3.345E+00
   20.900   3.272E+00
   21.000   3.200E+00
   21.100   3.130E+00
   21.200   3.061E+00
   21.300   2.994E+00
   21.400   2.928E+00
   21.500   2.863E+00
   21.600   2.799E+00
   21.700   2.737E+00
   21.800   2.676E+00
   21.900   2.616E+00
   22.000   2.558E+00
   22.100   2.500E+00
   22.200   2.444E+00
   22.300   2.390E+00
   22.400   2.336E+00
   22.500   2.284E+00
   22.600   2.232E+00
   22.700   2.182E+00
   22.800   2.133E+00
   22.900   2.085E+00
   23.000   2.039E+00
   23.100   1.993E+00
   23.200   1.949E+00
   23.300   1.905E+00
   23.400   1.863E+00
   23.500   1.822E+00
   23.600   1.783E+00
   23.700   1.744E+00
   23.800   1.707E+00
   23.900   1.671E+00
   24.000   1.636E+00
   24.100   1.602E+00
   24.200   1.569E+00
   24.300   1.537E+00
   24.400   1.507E+00
   24.500   1.477E+00
   24.600   1.448E+00
   24.700   1.420E+00
   24.800   1.393E+00
   24.900   1.367E+00
   25.000   1.341E+00
   25.100   1.317E+00
   25.200   1.293E+00
   25.300   1.269E+00
   25.400   1.247E+00
   25.500   1.225E+00
   25.600   1.203E+00
   25.700   1.182E+00
   25.800   1.161E+00
   25.900   1.141E+00
   26.000   1.122E+00
   26.100   1.103E+00
   26.200   1.084E+00
   26.300   1.066E+00
   26.400   1.048E+00
   26.500   1.031E+00
   26.600   1.015E+00
   26.700   9.985E-01
   26.800   9.827E-01
   26.900   9.675E-01
   27.000   9.527E-01
   27.100   9.383E-01
   27.200   9.243E-01
   27.300   9.107E-01
   27.400   8.976E-01
   27.500   8.847E-01
   27.600   8.722E-01
   27.700   8.601E-01
   27.800   8.483E-01
   27.900   8.368E-01
   28.000   8.255E-01
   28.100   8.146E-01
   28.200   8.039E-01
   28.300   7.935E-01
   28.400   7.834E-01
   28.500   7.734E-01
   28.600   7.637E-01
   28.700   7.543E-01
   28.800   7.450E-01
   28.900   7.360E-01
   29.000   7.271E-01
   29.100   7.184E-01
   29.200   7.100E-01
   29.300   7.017E-01
   29.400   6.935E-01
   29.500   6.856E-01
   29.600   6.778E-01
   29.700   6.701E-01
   29.800   6.626E-01
   29.900   6.553E-01
   30.000   6.480E-01
 
 Z=  53 A= 143  D1M-QRPA-Inter
 E[MeV]  fQRPA[mb/MeV]
    0.100   7.697E-03
    0.200   1.088E-02
    0.300   1.321E-02
    0.400   1.532E-02
    0.500   1.745E-02
    0.600   1.969E-02
    0.700   2.211E-02
    0.800   2.473E-02
    0.900   2.759E-02
    1.000   3.070E-02
    1.100   3.408E-02
    1.200   3.775E-02
    1.300   4.175E-02
    1.400   4.608E-02
    1.500   5.078E-02
    1.600   5.585E-02
    1.700   6.134E-02
    1.800   6.726E-02
    1.900   7.363E-02
    2.000   8.049E-02
    2.100   8.786E-02
    2.200   9.577E-02
    2.300   1.043E-01
    2.400   1.134E-01
    2.500   1.232E-01
    2.600   1.337E-01
    2.700   1.450E-01
    2.800   1.571E-01
    2.900   1.702E-01
    3.000   1.842E-01
    3.100   1.994E-01
    3.200   2.157E-01
    3.300   2.333E-01
    3.400   2.523E-01
    3.500   2.728E-01
    3.600   2.950E-01
    3.700   3.188E-01
    3.800   3.446E-01
    3.900   3.723E-01
    4.000   4.021E-01
    4.100   4.341E-01
    4.200   4.684E-01
    4.300   5.051E-01
    4.400   5.441E-01
    4.500   5.855E-01
    4.600   6.292E-01
    4.700   6.750E-01
    4.800   7.227E-01
    4.900   7.719E-01
    5.000   8.223E-01
    5.100   8.735E-01
    5.200   9.248E-01
    5.300   9.759E-01
    5.400   1.026E+00
    5.500   1.075E+00
    5.600   1.123E+00
    5.700   1.170E+00
    5.800   1.214E+00
    5.900   1.258E+00
    6.000   1.301E+00
    6.100   1.342E+00
    6.200   1.384E+00
    6.300   1.426E+00
    6.400   1.468E+00
    6.500   1.511E+00
    6.600   1.556E+00
    6.700   1.602E+00
    6.800   1.651E+00
    6.900   1.702E+00
    7.000   1.755E+00
    7.100   1.812E+00
    7.200   1.872E+00
    7.300   1.935E+00
    7.400   2.002E+00
    7.500   2.073E+00
    7.600   2.147E+00
    7.700   2.226E+00
    7.800   2.308E+00
    7.900   2.395E+00
    8.000   2.485E+00
    8.100   2.580E+00
    8.200   2.680E+00
    8.300   2.783E+00
    8.400   2.892E+00
    8.500   3.005E+00
    8.600   3.124E+00
    8.700   3.249E+00
    8.800   3.379E+00
    8.900   3.516E+00
    9.000   3.659E+00
    9.100   3.809E+00
    9.200   3.968E+00
    9.300   4.135E+00
    9.400   4.311E+00
    9.500   4.497E+00
    9.600   4.695E+00
    9.700   4.905E+00
    9.800   5.130E+00
    9.900   5.370E+00
   10.000   5.627E+00
   10.100   5.903E+00
   10.200   6.199E+00
   10.300   6.518E+00
   10.400   6.860E+00
   10.500   7.228E+00
   10.600   7.622E+00
   10.700   8.044E+00
   10.800   8.496E+00
   10.900   8.977E+00
   11.000   9.488E+00
   11.100   1.003E+01
   11.200   1.060E+01
   11.300   1.119E+01
   11.400   1.180E+01
   11.500   1.242E+01
   11.600   1.306E+01
   11.700   1.368E+01
   11.800   1.430E+01
   11.900   1.489E+01
   12.000   1.544E+01
   12.100   1.595E+01
   12.200   1.640E+01
   12.300   1.680E+01
   12.400   1.715E+01
   12.500   1.744E+01
   12.600   1.767E+01
   12.700   1.787E+01
   12.800   1.803E+01
   12.900   1.815E+01
   13.000   1.826E+01
   13.100   1.834E+01
   13.200   1.841E+01
   13.300   1.847E+01
   13.400   1.851E+01
   13.500   1.854E+01
   13.600   1.855E+01
   13.700   1.853E+01
   13.800   1.849E+01
   13.900   1.842E+01
   14.000   1.832E+01
   14.100   1.818E+01
   14.200   1.801E+01
   14.300   1.781E+01
   14.400   1.758E+01
   14.500   1.732E+01
   14.600   1.705E+01
   14.700   1.676E+01
   14.800   1.647E+01
   14.900   1.618E+01
   15.000   1.589E+01
   15.100   1.560E+01
   15.200   1.533E+01
   15.300   1.506E+01
   15.400   1.480E+01
   15.500   1.454E+01
   15.600   1.427E+01
   15.700   1.400E+01
   15.800   1.373E+01
   15.900   1.344E+01
   16.000   1.314E+01
   16.100   1.284E+01
   16.200   1.252E+01
   16.300   1.221E+01
   16.400   1.189E+01
   16.500   1.158E+01
   16.600   1.127E+01
   16.700   1.097E+01
   16.800   1.068E+01
   16.900   1.041E+01
   17.000   1.014E+01
   17.100   9.896E+00
   17.200   9.664E+00
   17.300   9.447E+00
   17.400   9.246E+00
   17.500   9.059E+00
   17.600   8.884E+00
   17.700   8.720E+00
   17.800   8.565E+00
   17.900   8.415E+00
   18.000   8.269E+00
   18.100   8.125E+00
   18.200   7.980E+00
   18.300   7.834E+00
   18.400   7.686E+00
   18.500   7.534E+00
   18.600   7.380E+00
   18.700   7.223E+00
   18.800   7.064E+00
   18.900   6.903E+00
   19.000   6.742E+00
   19.100   6.581E+00
   19.200   6.421E+00
   19.300   6.263E+00
   19.400   6.107E+00
   19.500   5.955E+00
   19.600   5.806E+00
   19.700   5.661E+00
   19.800   5.520E+00
   19.900   5.383E+00
   20.000   5.251E+00
   20.100   5.124E+00
   20.200   5.000E+00
   20.300   4.882E+00
   20.400   4.767E+00
   20.500   4.657E+00
   20.600   4.549E+00
   20.700   4.445E+00
   20.800   4.343E+00
   20.900   4.243E+00
   21.000   4.145E+00
   21.100   4.047E+00
   21.200   3.951E+00
   21.300   3.855E+00
   21.400   3.760E+00
   21.500   3.666E+00
   21.600   3.574E+00
   21.700   3.482E+00
   21.800   3.392E+00
   21.900   3.304E+00
   22.000   3.216E+00
   22.100   3.131E+00
   22.200   3.047E+00
   22.300   2.965E+00
   22.400   2.884E+00
   22.500   2.805E+00
   22.600   2.728E+00
   22.700   2.652E+00
   22.800   2.578E+00
   22.900   2.506E+00
   23.000   2.435E+00
   23.100   2.366E+00
   23.200   2.299E+00
   23.300   2.234E+00
   23.400   2.171E+00
   23.500   2.110E+00
   23.600   2.051E+00
   23.700   1.995E+00
   23.800   1.940E+00
   23.900   1.888E+00
   24.000   1.837E+00
   24.100   1.789E+00
   24.200   1.742E+00
   24.300   1.697E+00
   24.400   1.654E+00
   24.500   1.613E+00
   24.600   1.573E+00
   24.700   1.535E+00
   24.800   1.498E+00
   24.900   1.463E+00
   25.000   1.428E+00
   25.100   1.396E+00
   25.200   1.364E+00
   25.300   1.333E+00
   25.400   1.303E+00
   25.500   1.274E+00
   25.600   1.246E+00
   25.700   1.219E+00
   25.800   1.192E+00
   25.900   1.166E+00
   26.000   1.141E+00
   26.100   1.117E+00
   26.200   1.094E+00
   26.300   1.071E+00
   26.400   1.049E+00
   26.500   1.027E+00
   26.600   1.007E+00
   26.700   9.869E-01
   26.800   9.678E-01
   26.900   9.493E-01
   27.000   9.315E-01
   27.100   9.144E-01
   27.200   8.979E-01
   27.300   8.820E-01
   27.400   8.666E-01
   27.500   8.518E-01
   27.600   8.374E-01
   27.700   8.236E-01
   27.800   8.102E-01
   27.900   7.972E-01
   28.000   7.847E-01
   28.100   7.726E-01
   28.200   7.608E-01
   28.300   7.493E-01
   28.400   7.382E-01
   28.500   7.275E-01
   28.600   7.170E-01
   28.700   7.068E-01
   28.800   6.969E-01
   28.900   6.872E-01
   29.000   6.778E-01
   29.100   6.687E-01
   29.200   6.598E-01
   29.300   6.511E-01
   29.400   6.426E-01
   29.500   6.343E-01
   29.600   6.262E-01
   29.700   6.183E-01
   29.800   6.106E-01
   29.900   6.031E-01
   30.000   5.957E-01
 
