 Z=  54 A= 128  D1M-QRPA
   E[MeV]   fQRPA[mb/MeV]
    0.100   2.841E-04
    0.200   1.129E-03
    0.300   2.513E-03
    0.400   4.403E-03
    0.500   6.755E-03
    0.600   9.521E-03
    0.700   1.265E-02
    0.800   1.609E-02
    0.900   1.980E-02
    1.000   2.374E-02
    1.100   2.787E-02
    1.200   3.218E-02
    1.300   3.663E-02
    1.400   4.122E-02
    1.500   4.595E-02
    1.600   5.082E-02
    1.700   5.582E-02
    1.800   6.098E-02
    1.900   6.629E-02
    2.000   7.178E-02
    2.100   7.746E-02
    2.200   8.335E-02
    2.300   8.945E-02
    2.400   9.580E-02
    2.500   1.024E-01
    2.600   1.093E-01
    2.700   1.165E-01
    2.800   1.240E-01
    2.900   1.318E-01
    3.000   1.400E-01
    3.100   1.485E-01
    3.200   1.575E-01
    3.300   1.668E-01
    3.400   1.766E-01
    3.500   1.868E-01
    3.600   1.975E-01
    3.700   2.086E-01
    3.800   2.203E-01
    3.900   2.325E-01
    4.000   2.452E-01
    4.100   2.586E-01
    4.200   2.725E-01
    4.300   2.870E-01
    4.400   3.022E-01
    4.500   3.180E-01
    4.600   3.346E-01
    4.700   3.519E-01
    4.800   3.699E-01
    4.900   3.888E-01
    5.000   4.084E-01
    5.100   4.290E-01
    5.200   4.504E-01
    5.300   4.728E-01
    5.400   4.962E-01
    5.500   5.206E-01
    5.600   5.461E-01
    5.700   5.727E-01
    5.800   6.005E-01
    5.900   6.295E-01
    6.000   6.598E-01
    6.100   6.914E-01
    6.200   7.244E-01
    6.300   7.588E-01
    6.400   7.948E-01
    6.500   8.323E-01
    6.600   8.715E-01
    6.700   9.123E-01
    6.800   9.550E-01
    6.900   9.994E-01
    7.000   1.046E+00
    7.100   1.094E+00
    7.200   1.145E+00
    7.300   1.198E+00
    7.400   1.253E+00
    7.500   1.310E+00
    7.600   1.370E+00
    7.700   1.432E+00
    7.800   1.497E+00
    7.900   1.565E+00
    8.000   1.636E+00
    8.100   1.710E+00
    8.200   1.788E+00
    8.300   1.868E+00
    8.400   1.952E+00
    8.500   2.040E+00
    8.600   2.132E+00
    8.700   2.228E+00
    8.800   2.328E+00
    8.900   2.433E+00
    9.000   2.543E+00
    9.100   2.657E+00
    9.200   2.776E+00
    9.300   2.901E+00
    9.400   3.032E+00
    9.500   3.168E+00
    9.600   3.310E+00
    9.700   3.459E+00
    9.800   3.615E+00
    9.900   3.778E+00
   10.000   3.948E+00
   10.100   4.126E+00
   10.200   4.313E+00
   10.300   4.507E+00
   10.400   4.711E+00
   10.500   4.923E+00
   10.600   5.146E+00
   10.700   5.378E+00
   10.800   5.622E+00
   10.900   5.876E+00
   11.000   6.142E+00
   11.100   6.420E+00
   11.200   6.711E+00
   11.300   7.015E+00
   11.400   7.332E+00
   11.500   7.664E+00
   11.600   8.011E+00
   11.700   8.372E+00
   11.800   8.750E+00
   11.900   9.143E+00
   12.000   9.551E+00
   12.100   9.976E+00
   12.200   1.042E+01
   12.300   1.087E+01
   12.400   1.134E+01
   12.500   1.182E+01
   12.600   1.231E+01
   12.700   1.282E+01
   12.800   1.333E+01
   12.900   1.384E+01
   13.000   1.436E+01
   13.100   1.487E+01
   13.200   1.538E+01
   13.300   1.588E+01
   13.400   1.637E+01
   13.500   1.684E+01
   13.600   1.729E+01
   13.700   1.772E+01
   13.800   1.812E+01
   13.900   1.848E+01
   14.000   1.882E+01
   14.100   1.911E+01
   14.200   1.937E+01
   14.300   1.958E+01
   14.400   1.975E+01
   14.500   1.988E+01
   14.600   1.997E+01
   14.700   2.001E+01
   14.800   2.001E+01
   14.900   1.997E+01
   15.000   1.988E+01
   15.100   1.975E+01
   15.200   1.958E+01
   15.300   1.937E+01
   15.400   1.913E+01
   15.500   1.885E+01
   15.600   1.854E+01
   15.700   1.819E+01
   15.800   1.783E+01
   15.900   1.744E+01
   16.000   1.703E+01
   16.100   1.660E+01
   16.200   1.617E+01
   16.300   1.572E+01
   16.400   1.527E+01
   16.500   1.481E+01
   16.600   1.435E+01
   16.700   1.390E+01
   16.800   1.345E+01
   16.900   1.300E+01
   17.000   1.257E+01
   17.100   1.214E+01
   17.200   1.172E+01
   17.300   1.132E+01
   17.400   1.093E+01
   17.500   1.054E+01
   17.600   1.018E+01
   17.700   9.822E+00
   17.800   9.480E+00
   17.900   9.152E+00
   18.000   8.836E+00
   18.100   8.533E+00
   18.200   8.243E+00
   18.300   7.965E+00
   18.400   7.698E+00
   18.500   7.443E+00
   18.600   7.199E+00
   18.700   6.965E+00
   18.800   6.742E+00
   18.900   6.528E+00
   19.000   6.324E+00
   19.100   6.128E+00
   19.200   5.941E+00
   19.300   5.762E+00
   19.400   5.591E+00
   19.500   5.426E+00
   19.600   5.269E+00
   19.700   5.119E+00
   19.800   4.974E+00
   19.900   4.836E+00
   20.000   4.703E+00
   20.100   4.576E+00
   20.200   4.454E+00
   20.300   4.336E+00
   20.400   4.223E+00
   20.500   4.115E+00
   20.600   4.011E+00
   20.700   3.911E+00
   20.800   3.814E+00
   20.900   3.722E+00
   21.000   3.632E+00
   21.100   3.546E+00
   21.200   3.463E+00
   21.300   3.384E+00
   21.400   3.306E+00
   21.500   3.232E+00
   21.600   3.160E+00
   21.700   3.091E+00
   21.800   3.024E+00
   21.900   2.959E+00
   22.000   2.897E+00
   22.100   2.836E+00
   22.200   2.778E+00
   22.300   2.721E+00
   22.400   2.666E+00
   22.500   2.613E+00
   22.600   2.561E+00
   22.700   2.512E+00
   22.800   2.463E+00
   22.900   2.416E+00
   23.000   2.371E+00
   23.100   2.327E+00
   23.200   2.284E+00
   23.300   2.242E+00
   23.400   2.202E+00
   23.500   2.163E+00
   23.600   2.124E+00
   23.700   2.087E+00
   23.800   2.051E+00
   23.900   2.016E+00
   24.000   1.982E+00
   24.100   1.949E+00
   24.200   1.917E+00
   24.300   1.885E+00
   24.400   1.854E+00
   24.500   1.825E+00
   24.600   1.795E+00
   24.700   1.767E+00
   24.800   1.739E+00
   24.900   1.712E+00
   25.000   1.686E+00
   25.100   1.661E+00
   25.200   1.635E+00
   25.300   1.611E+00
   25.400   1.587E+00
   25.500   1.564E+00
   25.600   1.541E+00
   25.700   1.519E+00
   25.800   1.497E+00
   25.900   1.476E+00
   26.000   1.455E+00
   26.100   1.435E+00
   26.200   1.415E+00
   26.300   1.396E+00
   26.400   1.377E+00
   26.500   1.358E+00
   26.600   1.340E+00
   26.700   1.322E+00
   26.800   1.305E+00
   26.900   1.288E+00
   27.000   1.271E+00
   27.100   1.255E+00
   27.200   1.239E+00
   27.300   1.223E+00
   27.400   1.208E+00
   27.500   1.193E+00
   27.600   1.178E+00
   27.700   1.164E+00
   27.800   1.150E+00
   27.900   1.136E+00
   28.000   1.122E+00
   28.100   1.109E+00
   28.200   1.096E+00
   28.300   1.083E+00
   28.400   1.070E+00
   28.500   1.058E+00
   28.600   1.046E+00
   28.700   1.034E+00
   28.800   1.022E+00
   28.900   1.011E+00
   29.000   9.994E-01
   29.100   9.883E-01
   29.200   9.774E-01
   29.300   9.667E-01
   29.400   9.562E-01
   29.500   9.459E-01
   29.600   9.357E-01
   29.700   9.257E-01
   29.800   9.159E-01
   29.900   9.063E-01
   30.000   8.968E-01
 
 Z=  54 A= 129  D1M-QRPA-Inter
 E[MeV]  fQRPA[mb/MeV]
    0.100   1.405E-04
    0.200   5.604E-04
    0.300   1.254E-03
    0.400   2.215E-03
    0.500   3.430E-03
    0.600   4.890E-03
    0.700   6.581E-03
    0.800   8.490E-03
    0.900   1.060E-02
    1.000   1.291E-02
    1.100   1.541E-02
    1.200   1.808E-02
    1.300   2.093E-02
    1.400   2.395E-02
    1.500   2.713E-02
    1.600   3.048E-02
    1.700   3.400E-02
    1.800   3.770E-02
    1.900   4.156E-02
    2.000   4.561E-02
    2.100   4.985E-02
    2.200   5.429E-02
    2.300   5.892E-02
    2.400   6.376E-02
    2.500   6.882E-02
    2.600   7.410E-02
    2.700   7.962E-02
    2.800   8.537E-02
    2.900   9.138E-02
    3.000   9.765E-02
    3.100   1.042E-01
    3.200   1.110E-01
    3.300   1.181E-01
    3.400   1.255E-01
    3.500   1.333E-01
    3.600   1.413E-01
    3.700   1.497E-01
    3.800   1.585E-01
    3.900   1.677E-01
    4.000   1.772E-01
    4.100   1.871E-01
    4.200   1.975E-01
    4.300   2.083E-01
    4.400   2.196E-01
    4.500   2.314E-01
    4.600   2.436E-01
    4.700   2.564E-01
    4.800   2.697E-01
    4.900   2.836E-01
    5.000   2.981E-01
    5.100   3.132E-01
    5.200   3.290E-01
    5.300   3.454E-01
    5.400   3.625E-01
    5.500   3.804E-01
    5.600   3.990E-01
    5.700   4.185E-01
    5.800   4.388E-01
    5.900   4.599E-01
    6.000   4.820E-01
    6.100   5.050E-01
    6.200   5.291E-01
    6.300   5.542E-01
    6.400   5.804E-01
    6.500   6.077E-01
    6.600   6.363E-01
    6.700   6.661E-01
    6.800   6.972E-01
    6.900   7.298E-01
    7.000   7.638E-01
    7.100   7.993E-01
    7.200   8.364E-01
    7.300   8.752E-01
    7.400   9.158E-01
    7.500   9.582E-01
    7.600   1.002E+00
    7.700   1.049E+00
    7.800   1.097E+00
    7.900   1.148E+00
    8.000   1.200E+00
    8.100   1.256E+00
    8.200   1.313E+00
    8.300   1.373E+00
    8.400   1.436E+00
    8.500   1.502E+00
    8.600   1.570E+00
    8.700   1.642E+00
    8.800   1.716E+00
    8.900   1.794E+00
    9.000   1.875E+00
    9.100   1.960E+00
    9.200   2.048E+00
    9.300   2.140E+00
    9.400   2.237E+00
    9.500   2.337E+00
    9.600   2.442E+00
    9.700   2.552E+00
    9.800   2.666E+00
    9.900   2.786E+00
   10.000   2.911E+00
   10.100   3.042E+00
   10.200   3.179E+00
   10.300   3.322E+00
   10.400   3.472E+00
   10.500   3.629E+00
   10.600   3.793E+00
   10.700   3.965E+00
   10.800   4.145E+00
   10.900   4.333E+00
   11.000   4.530E+00
   11.100   4.736E+00
   11.200   4.952E+00
   11.300   5.177E+00
   11.400   5.413E+00
   11.500   5.660E+00
   11.600   5.918E+00
   11.700   6.187E+00
   11.800   6.469E+00
   11.900   6.764E+00
   12.000   7.071E+00
   12.100   7.392E+00
   12.200   7.727E+00
   12.300   8.077E+00
   12.400   8.441E+00
   12.500   8.821E+00
   12.600   9.216E+00
   12.700   9.626E+00
   12.800   1.005E+01
   12.900   1.050E+01
   13.000   1.095E+01
   13.100   1.143E+01
   13.200   1.192E+01
   13.300   1.242E+01
   13.400   1.293E+01
   13.500   1.346E+01
   13.600   1.400E+01
   13.700   1.454E+01
   13.800   1.509E+01
   13.900   1.564E+01
   14.000   1.619E+01
   14.100   1.674E+01
   14.200   1.728E+01
   14.300   1.781E+01
   14.400   1.831E+01
   14.500   1.880E+01
   14.600   1.926E+01
   14.700   1.968E+01
   14.800   2.007E+01
   14.900   2.041E+01
   15.000   2.070E+01
   15.100   2.094E+01
   15.200   2.113E+01
   15.300   2.126E+01
   15.400   2.132E+01
   15.500   2.133E+01
   15.600   2.128E+01
   15.700   2.118E+01
   15.800   2.101E+01
   15.900   2.080E+01
   16.000   2.053E+01
   16.100   2.022E+01
   16.200   1.986E+01
   16.300   1.946E+01
   16.400   1.903E+01
   16.500   1.857E+01
   16.600   1.809E+01
   16.700   1.758E+01
   16.800   1.706E+01
   16.900   1.652E+01
   17.000   1.598E+01
   17.100   1.543E+01
   17.200   1.489E+01
   17.300   1.435E+01
   17.400   1.382E+01
   17.500   1.331E+01
   17.600   1.280E+01
   17.700   1.231E+01
   17.800   1.184E+01
   17.900   1.138E+01
   18.000   1.094E+01
   18.100   1.052E+01
   18.200   1.012E+01
   18.300   9.735E+00
   18.400   9.366E+00
   18.500   9.014E+00
   18.600   8.677E+00
   18.700   8.355E+00
   18.800   8.048E+00
   18.900   7.754E+00
   19.000   7.474E+00
   19.100   7.206E+00
   19.200   6.951E+00
   19.300   6.707E+00
   19.400   6.474E+00
   19.500   6.251E+00
   19.600   6.039E+00
   19.700   5.837E+00
   19.800   5.643E+00
   19.900   5.459E+00
   20.000   5.283E+00
   20.100   5.115E+00
   20.200   4.955E+00
   20.300   4.802E+00
   20.400   4.656E+00
   20.500   4.516E+00
   20.600   4.383E+00
   20.700   4.256E+00
   20.800   4.134E+00
   20.900   4.017E+00
   21.000   3.906E+00
   21.100   3.799E+00
   21.200   3.696E+00
   21.300   3.598E+00
   21.400   3.504E+00
   21.500   3.413E+00
   21.600   3.327E+00
   21.700   3.243E+00
   21.800   3.163E+00
   21.900   3.086E+00
   22.000   3.012E+00
   22.100   2.941E+00
   22.200   2.872E+00
   22.300   2.806E+00
   22.400   2.743E+00
   22.500   2.681E+00
   22.600   2.622E+00
   22.700   2.565E+00
   22.800   2.509E+00
   22.900   2.456E+00
   23.000   2.404E+00
   23.100   2.355E+00
   23.200   2.306E+00
   23.300   2.260E+00
   23.400   2.215E+00
   23.500   2.171E+00
   23.600   2.129E+00
   23.700   2.088E+00
   23.800   2.048E+00
   23.900   2.009E+00
   24.000   1.972E+00
   24.100   1.936E+00
   24.200   1.900E+00
   24.300   1.866E+00
   24.400   1.833E+00
   24.500   1.801E+00
   24.600   1.769E+00
   24.700   1.739E+00
   24.800   1.709E+00
   24.900   1.680E+00
   25.000   1.652E+00
   25.100   1.625E+00
   25.200   1.598E+00
   25.300   1.572E+00
   25.400   1.547E+00
   25.500   1.523E+00
   25.600   1.499E+00
   25.700   1.475E+00
   25.800   1.453E+00
   25.900   1.430E+00
   26.000   1.409E+00
   26.100   1.388E+00
   26.200   1.367E+00
   26.300   1.347E+00
   26.400   1.327E+00
   26.500   1.308E+00
   26.600   1.289E+00
   26.700   1.271E+00
   26.800   1.253E+00
   26.900   1.236E+00
   27.000   1.219E+00
   27.100   1.202E+00
   27.200   1.185E+00
   27.300   1.169E+00
   27.400   1.154E+00
   27.500   1.139E+00
   27.600   1.124E+00
   27.700   1.109E+00
   27.800   1.094E+00
   27.900   1.080E+00
   28.000   1.067E+00
   28.100   1.053E+00
   28.200   1.040E+00
   28.300   1.027E+00
   28.400   1.014E+00
   28.500   1.002E+00
   28.600   9.897E-01
   28.700   9.777E-01
   28.800   9.660E-01
   28.900   9.545E-01
   29.000   9.433E-01
   29.100   9.322E-01
   29.200   9.213E-01
   29.300   9.107E-01
   29.400   9.002E-01
   29.500   8.900E-01
   29.600   8.799E-01
   29.700   8.700E-01
   29.800   8.603E-01
   29.900   8.508E-01
   30.000   8.414E-01
 
 Z=  54 A= 130  D1M-QRPA
   E[MeV]   fQRPA[mb/MeV]
    0.100   6.754E-05
    0.200   2.702E-04
    0.300   6.083E-04
    0.400   1.082E-03
    0.500   1.693E-03
    0.600   2.441E-03
    0.700   3.327E-03
    0.800   4.352E-03
    0.900   5.518E-03
    1.000   6.826E-03
    1.100   8.279E-03
    1.200   9.877E-03
    1.300   1.162E-02
    1.400   1.352E-02
    1.500   1.556E-02
    1.600   1.777E-02
    1.700   2.013E-02
    1.800   2.264E-02
    1.900   2.532E-02
    2.000   2.817E-02
    2.100   3.118E-02
    2.200   3.436E-02
    2.300   3.771E-02
    2.400   4.123E-02
    2.500   4.494E-02
    2.600   4.882E-02
    2.700   5.288E-02
    2.800   5.713E-02
    2.900   6.156E-02
    3.000   6.619E-02
    3.100   7.102E-02
    3.200   7.604E-02
    3.300   8.128E-02
    3.400   8.673E-02
    3.500   9.240E-02
    3.600   9.830E-02
    3.700   1.044E-01
    3.800   1.108E-01
    3.900   1.175E-01
    4.000   1.244E-01
    4.100   1.316E-01
    4.200   1.391E-01
    4.300   1.469E-01
    4.400   1.551E-01
    4.500   1.635E-01
    4.600   1.724E-01
    4.700   1.815E-01
    4.800   1.911E-01
    4.900   2.011E-01
    5.000   2.114E-01
    5.100   2.222E-01
    5.200   2.335E-01
    5.300   2.452E-01
    5.400   2.574E-01
    5.500   2.701E-01
    5.600   2.833E-01
    5.700   2.971E-01
    5.800   3.115E-01
    5.900   3.265E-01
    6.000   3.421E-01
    6.100   3.585E-01
    6.200   3.755E-01
    6.300   3.932E-01
    6.400   4.118E-01
    6.500   4.312E-01
    6.600   4.514E-01
    6.700   4.725E-01
    6.800   4.947E-01
    6.900   5.178E-01
    7.000   5.420E-01
    7.100   5.673E-01
    7.200   5.938E-01
    7.300   6.216E-01
    7.400   6.506E-01
    7.500   6.811E-01
    7.600   7.129E-01
    7.700   7.463E-01
    7.800   7.811E-01
    7.900   8.177E-01
    8.000   8.558E-01
    8.100   8.957E-01
    8.200   9.375E-01
    8.300   9.810E-01
    8.400   1.027E+00
    8.500   1.074E+00
    8.600   1.124E+00
    8.700   1.175E+00
    8.800   1.229E+00
    8.900   1.285E+00
    9.000   1.344E+00
    9.100   1.405E+00
    9.200   1.468E+00
    9.300   1.534E+00
    9.400   1.604E+00
    9.500   1.676E+00
    9.600   1.751E+00
    9.700   1.829E+00
    9.800   1.911E+00
    9.900   1.997E+00
   10.000   2.086E+00
   10.100   2.180E+00
   10.200   2.277E+00
   10.300   2.380E+00
   10.400   2.487E+00
   10.500   2.599E+00
   10.600   2.717E+00
   10.700   2.840E+00
   10.800   2.969E+00
   10.900   3.105E+00
   11.000   3.246E+00
   11.100   3.395E+00
   11.200   3.550E+00
   11.300   3.713E+00
   11.400   3.883E+00
   11.500   4.061E+00
   11.600   4.248E+00
   11.700   4.443E+00
   11.800   4.648E+00
   11.900   4.862E+00
   12.000   5.087E+00
   12.100   5.323E+00
   12.200   5.571E+00
   12.300   5.831E+00
   12.400   6.106E+00
   12.500   6.396E+00
   12.600   6.702E+00
   12.700   7.026E+00
   12.800   7.369E+00
   12.900   7.733E+00
   13.000   8.120E+00
   13.100   8.531E+00
   13.200   8.968E+00
   13.300   9.432E+00
   13.400   9.926E+00
   13.500   1.045E+01
   13.600   1.100E+01
   13.700   1.159E+01
   13.800   1.221E+01
   13.900   1.286E+01
   14.000   1.354E+01
   14.100   1.425E+01
   14.200   1.498E+01
   14.300   1.573E+01
   14.400   1.650E+01
   14.500   1.727E+01
   14.600   1.805E+01
   14.700   1.881E+01
   14.800   1.956E+01
   14.900   2.027E+01
   15.000   2.095E+01
   15.100   2.158E+01
   15.200   2.216E+01
   15.300   2.266E+01
   15.400   2.310E+01
   15.500   2.347E+01
   15.600   2.375E+01
   15.700   2.395E+01
   15.800   2.406E+01
   15.900   2.410E+01
   16.000   2.405E+01
   16.100   2.391E+01
   16.200   2.370E+01
   16.300   2.342E+01
   16.400   2.306E+01
   16.500   2.263E+01
   16.600   2.215E+01
   16.700   2.161E+01
   16.800   2.102E+01
   16.900   2.039E+01
   17.000   1.974E+01
   17.100   1.906E+01
   17.200   1.838E+01
   17.300   1.768E+01
   17.400   1.700E+01
   17.500   1.631E+01
   17.600   1.565E+01
   17.700   1.500E+01
   17.800   1.437E+01
   17.900   1.376E+01
   18.000   1.317E+01
   18.100   1.261E+01
   18.200   1.207E+01
   18.300   1.156E+01
   18.400   1.107E+01
   18.500   1.061E+01
   18.600   1.016E+01
   18.700   9.738E+00
   18.800   9.334E+00
   18.900   8.950E+00
   19.000   8.583E+00
   19.100   8.234E+00
   19.200   7.901E+00
   19.300   7.585E+00
   19.400   7.284E+00
   19.500   6.998E+00
   19.600   6.726E+00
   19.700   6.467E+00
   19.800   6.221E+00
   19.900   5.988E+00
   20.000   5.767E+00
   20.100   5.557E+00
   20.200   5.357E+00
   20.300   5.167E+00
   20.400   4.987E+00
   20.500   4.817E+00
   20.600   4.654E+00
   20.700   4.500E+00
   20.800   4.353E+00
   20.900   4.213E+00
   21.000   4.080E+00
   21.100   3.954E+00
   21.200   3.833E+00
   21.300   3.718E+00
   21.400   3.608E+00
   21.500   3.503E+00
   21.600   3.403E+00
   21.700   3.307E+00
   21.800   3.216E+00
   21.900   3.128E+00
   22.000   3.044E+00
   22.100   2.964E+00
   22.200   2.886E+00
   22.300   2.812E+00
   22.400   2.741E+00
   22.500   2.673E+00
   22.600   2.608E+00
   22.700   2.545E+00
   22.800   2.484E+00
   22.900   2.426E+00
   23.000   2.370E+00
   23.100   2.315E+00
   23.200   2.263E+00
   23.300   2.213E+00
   23.400   2.165E+00
   23.500   2.118E+00
   23.600   2.072E+00
   23.700   2.029E+00
   23.800   1.987E+00
   23.900   1.946E+00
   24.000   1.906E+00
   24.100   1.868E+00
   24.200   1.831E+00
   24.300   1.795E+00
   24.400   1.760E+00
   24.500   1.727E+00
   24.600   1.694E+00
   24.700   1.663E+00
   24.800   1.632E+00
   24.900   1.602E+00
   25.000   1.573E+00
   25.100   1.545E+00
   25.200   1.518E+00
   25.300   1.491E+00
   25.400   1.466E+00
   25.500   1.441E+00
   25.600   1.416E+00
   25.700   1.393E+00
   25.800   1.369E+00
   25.900   1.347E+00
   26.000   1.325E+00
   26.100   1.304E+00
   26.200   1.283E+00
   26.300   1.263E+00
   26.400   1.243E+00
   26.500   1.224E+00
   26.600   1.205E+00
   26.700   1.187E+00
   26.800   1.169E+00
   26.900   1.152E+00
   27.000   1.135E+00
   27.100   1.118E+00
   27.200   1.102E+00
   27.300   1.086E+00
   27.400   1.071E+00
   27.500   1.056E+00
   27.600   1.041E+00
   27.700   1.027E+00
   27.800   1.012E+00
   27.900   9.986E-01
   28.000   9.852E-01
   28.100   9.720E-01
   28.200   9.591E-01
   28.300   9.464E-01
   28.400   9.341E-01
   28.500   9.220E-01
   28.600   9.101E-01
   28.700   8.985E-01
   28.800   8.872E-01
   28.900   8.760E-01
   29.000   8.651E-01
   29.100   8.544E-01
   29.200   8.439E-01
   29.300   8.337E-01
   29.400   8.236E-01
   29.500   8.137E-01
   29.600   8.040E-01
   29.700   7.945E-01
   29.800   7.852E-01
   29.900   7.761E-01
   30.000   7.671E-01
 
 Z=  54 A= 131  D1M-QRPA-Inter
 E[MeV]  fQRPA[mb/MeV]
    0.100   6.769E-05
    0.200   2.709E-04
    0.300   6.098E-04
    0.400   1.085E-03
    0.500   1.697E-03
    0.600   2.446E-03
    0.700   3.334E-03
    0.800   4.361E-03
    0.900   5.529E-03
    1.000   6.839E-03
    1.100   8.293E-03
    1.200   9.893E-03
    1.300   1.164E-02
    1.400   1.354E-02
    1.500   1.559E-02
    1.600   1.779E-02
    1.700   2.015E-02
    1.800   2.267E-02
    1.900   2.535E-02
    2.000   2.820E-02
    2.100   3.121E-02
    2.200   3.440E-02
    2.300   3.776E-02
    2.400   4.129E-02
    2.500   4.501E-02
    2.600   4.891E-02
    2.700   5.300E-02
    2.800   5.727E-02
    2.900   6.174E-02
    3.000   6.641E-02
    3.100   7.129E-02
    3.200   7.637E-02
    3.300   8.166E-02
    3.400   8.717E-02
    3.500   9.291E-02
    3.600   9.889E-02
    3.700   1.051E-01
    3.800   1.116E-01
    3.900   1.183E-01
    4.000   1.253E-01
    4.100   1.326E-01
    4.200   1.402E-01
    4.300   1.481E-01
    4.400   1.563E-01
    4.500   1.648E-01
    4.600   1.737E-01
    4.700   1.830E-01
    4.800   1.926E-01
    4.900   2.026E-01
    5.000   2.131E-01
    5.100   2.240E-01
    5.200   2.353E-01
    5.300   2.471E-01
    5.400   2.594E-01
    5.500   2.722E-01
    5.600   2.856E-01
    5.700   2.995E-01
    5.800   3.140E-01
    5.900   3.291E-01
    6.000   3.449E-01
    6.100   3.614E-01
    6.200   3.785E-01
    6.300   3.965E-01
    6.400   4.152E-01
    6.500   4.348E-01
    6.600   4.552E-01
    6.700   4.766E-01
    6.800   4.989E-01
    6.900   5.223E-01
    7.000   5.468E-01
    7.100   5.724E-01
    7.200   5.992E-01
    7.300   6.273E-01
    7.400   6.567E-01
    7.500   6.875E-01
    7.600   7.198E-01
    7.700   7.536E-01
    7.800   7.890E-01
    7.900   8.261E-01
    8.000   8.649E-01
    8.100   9.055E-01
    8.200   9.480E-01
    8.300   9.924E-01
    8.400   1.039E+00
    8.500   1.087E+00
    8.600   1.138E+00
    8.700   1.190E+00
    8.800   1.245E+00
    8.900   1.302E+00
    9.000   1.362E+00
    9.100   1.424E+00
    9.200   1.489E+00
    9.300   1.556E+00
    9.400   1.626E+00
    9.500   1.699E+00
    9.600   1.776E+00
    9.700   1.855E+00
    9.800   1.939E+00
    9.900   2.026E+00
   10.000   2.116E+00
   10.100   2.211E+00
   10.200   2.311E+00
   10.300   2.415E+00
   10.400   2.524E+00
   10.500   2.638E+00
   10.600   2.758E+00
   10.700   2.883E+00
   10.800   3.014E+00
   10.900   3.152E+00
   11.000   3.296E+00
   11.100   3.447E+00
   11.200   3.605E+00
   11.300   3.771E+00
   11.400   3.945E+00
   11.500   4.127E+00
   11.600   4.318E+00
   11.700   4.518E+00
   11.800   4.727E+00
   11.900   4.947E+00
   12.000   5.178E+00
   12.100   5.420E+00
   12.200   5.674E+00
   12.300   5.942E+00
   12.400   6.224E+00
   12.500   6.521E+00
   12.600   6.835E+00
   12.700   7.167E+00
   12.800   7.520E+00
   12.900   7.894E+00
   13.000   8.291E+00
   13.100   8.714E+00
   13.200   9.164E+00
   13.300   9.643E+00
   13.400   1.015E+01
   13.500   1.069E+01
   13.600   1.127E+01
   13.700   1.188E+01
   13.800   1.253E+01
   13.900   1.321E+01
   14.000   1.392E+01
   14.100   1.467E+01
   14.200   1.545E+01
   14.300   1.625E+01
   14.400   1.707E+01
   14.500   1.790E+01
   14.600   1.874E+01
   14.700   1.957E+01
   14.800   2.038E+01
   14.900   2.116E+01
   15.000   2.189E+01
   15.100   2.257E+01
   15.200   2.318E+01
   15.300   2.370E+01
   15.400   2.414E+01
   15.500   2.447E+01
   15.600   2.470E+01
   15.700   2.482E+01
   15.800   2.484E+01
   15.900   2.474E+01
   16.000   2.455E+01
   16.100   2.426E+01
   16.200   2.388E+01
   16.300   2.343E+01
   16.400   2.290E+01
   16.500   2.232E+01
   16.600   2.169E+01
   16.700   2.102E+01
   16.800   2.033E+01
   16.900   1.962E+01
   17.000   1.890E+01
   17.100   1.818E+01
   17.200   1.746E+01
   17.300   1.676E+01
   17.400   1.607E+01
   17.500   1.540E+01
   17.600   1.475E+01
   17.700   1.412E+01
   17.800   1.352E+01
   17.900   1.294E+01
   18.000   1.239E+01
   18.100   1.186E+01
   18.200   1.136E+01
   18.300   1.088E+01
   18.400   1.042E+01
   18.500   9.983E+00
   18.600   9.567E+00
   18.700   9.171E+00
   18.800   8.794E+00
   18.900   8.434E+00
   19.000   8.092E+00
   19.100   7.767E+00
   19.200   7.457E+00
   19.300   7.163E+00
   19.400   6.883E+00
   19.500   6.617E+00
   19.600   6.365E+00
   19.700   6.125E+00
   19.800   5.897E+00
   19.900   5.681E+00
   20.000   5.476E+00
   20.100   5.281E+00
   20.200   5.096E+00
   20.300   4.920E+00
   20.400   4.753E+00
   20.500   4.594E+00
   20.600   4.443E+00
   20.700   4.300E+00
   20.800   4.163E+00
   20.900   4.033E+00
   21.000   3.909E+00
   21.100   3.790E+00
   21.200   3.678E+00
   21.300   3.570E+00
   21.400   3.467E+00
   21.500   3.369E+00
   21.600   3.275E+00
   21.700   3.185E+00
   21.800   3.099E+00
   21.900   3.016E+00
   22.000   2.937E+00
   22.100   2.861E+00
   22.200   2.788E+00
   22.300   2.719E+00
   22.400   2.651E+00
   22.500   2.587E+00
   22.600   2.525E+00
   22.700   2.465E+00
   22.800   2.408E+00
   22.900   2.352E+00
   23.000   2.299E+00
   23.100   2.247E+00
   23.200   2.198E+00
   23.300   2.150E+00
   23.400   2.104E+00
   23.500   2.059E+00
   23.600   2.016E+00
   23.700   1.974E+00
   23.800   1.934E+00
   23.900   1.895E+00
   24.000   1.857E+00
   24.100   1.820E+00
   24.200   1.785E+00
   24.300   1.750E+00
   24.400   1.717E+00
   24.500   1.685E+00
   24.600   1.654E+00
   24.700   1.623E+00
   24.800   1.594E+00
   24.900   1.565E+00
   25.000   1.537E+00
   25.100   1.510E+00
   25.200   1.484E+00
   25.300   1.458E+00
   25.400   1.434E+00
   25.500   1.409E+00
   25.600   1.386E+00
   25.700   1.363E+00
   25.800   1.341E+00
   25.900   1.319E+00
   26.000   1.298E+00
   26.100   1.277E+00
   26.200   1.257E+00
   26.300   1.238E+00
   26.400   1.219E+00
   26.500   1.200E+00
   26.600   1.182E+00
   26.700   1.164E+00
   26.800   1.147E+00
   26.900   1.130E+00
   27.000   1.114E+00
   27.100   1.098E+00
   27.200   1.082E+00
   27.300   1.067E+00
   27.400   1.052E+00
   27.500   1.037E+00
   27.600   1.023E+00
   27.700   1.009E+00
   27.800   9.949E-01
   27.900   9.815E-01
   28.000   9.683E-01
   28.100   9.555E-01
   28.200   9.430E-01
   28.300   9.307E-01
   28.400   9.186E-01
   28.500   9.069E-01
   28.600   8.953E-01
   28.700   8.840E-01
   28.800   8.729E-01
   28.900   8.621E-01
   29.000   8.515E-01
   29.100   8.410E-01
   29.200   8.308E-01
   29.300   8.208E-01
   29.400   8.110E-01
   29.500   8.013E-01
   29.600   7.919E-01
   29.700   7.826E-01
   29.800   7.735E-01
   29.900   7.646E-01
   30.000   7.558E-01
 
 Z=  54 A= 132  D1M-QRPA
   E[MeV]   fQRPA[mb/MeV]
    0.100   6.775E-05
    0.200   2.711E-04
    0.300   6.102E-04
    0.400   1.086E-03
    0.500   1.698E-03
    0.600   2.447E-03
    0.700   3.335E-03
    0.800   4.363E-03
    0.900   5.531E-03
    1.000   6.841E-03
    1.100   8.295E-03
    1.200   9.894E-03
    1.300   1.164E-02
    1.400   1.354E-02
    1.500   1.558E-02
    1.600   1.778E-02
    1.700   2.014E-02
    1.800   2.266E-02
    1.900   2.534E-02
    2.000   2.818E-02
    2.100   3.120E-02
    2.200   3.438E-02
    2.300   3.775E-02
    2.400   4.129E-02
    2.500   4.501E-02
    2.600   4.892E-02
    2.700   5.303E-02
    2.800   5.733E-02
    2.900   6.183E-02
    3.000   6.653E-02
    3.100   7.144E-02
    3.200   7.657E-02
    3.300   8.191E-02
    3.400   8.748E-02
    3.500   9.328E-02
    3.600   9.932E-02
    3.700   1.056E-01
    3.800   1.121E-01
    3.900   1.189E-01
    4.000   1.260E-01
    4.100   1.334E-01
    4.200   1.410E-01
    4.300   1.490E-01
    4.400   1.572E-01
    4.500   1.659E-01
    4.600   1.748E-01
    4.700   1.841E-01
    4.800   1.938E-01
    4.900   2.039E-01
    5.000   2.144E-01
    5.100   2.254E-01
    5.200   2.368E-01
    5.300   2.487E-01
    5.400   2.610E-01
    5.500   2.739E-01
    5.600   2.874E-01
    5.700   3.014E-01
    5.800   3.160E-01
    5.900   3.312E-01
    6.000   3.471E-01
    6.100   3.637E-01
    6.200   3.810E-01
    6.300   3.991E-01
    6.400   4.180E-01
    6.500   4.377E-01
    6.600   4.583E-01
    6.700   4.798E-01
    6.800   5.024E-01
    6.900   5.260E-01
    7.000   5.507E-01
    7.100   5.765E-01
    7.200   6.036E-01
    7.300   6.320E-01
    7.400   6.617E-01
    7.500   6.929E-01
    7.600   7.256E-01
    7.700   7.598E-01
    7.800   7.957E-01
    7.900   8.333E-01
    8.000   8.727E-01
    8.100   9.140E-01
    8.200   9.572E-01
    8.300   1.002E+00
    8.400   1.050E+00
    8.500   1.099E+00
    8.600   1.150E+00
    8.700   1.204E+00
    8.800   1.260E+00
    8.900   1.318E+00
    9.000   1.378E+00
    9.100   1.441E+00
    9.200   1.507E+00
    9.300   1.575E+00
    9.400   1.647E+00
    9.500   1.721E+00
    9.600   1.798E+00
    9.700   1.879E+00
    9.800   1.963E+00
    9.900   2.052E+00
   10.000   2.144E+00
   10.100   2.240E+00
   10.200   2.341E+00
   10.300   2.447E+00
   10.400   2.557E+00
   10.500   2.673E+00
   10.600   2.795E+00
   10.700   2.922E+00
   10.800   3.055E+00
   10.900   3.195E+00
   11.000   3.341E+00
   11.100   3.494E+00
   11.200   3.655E+00
   11.300   3.824E+00
   11.400   4.001E+00
   11.500   4.187E+00
   11.600   4.382E+00
   11.700   4.586E+00
   11.800   4.800E+00
   11.900   5.025E+00
   12.000   5.262E+00
   12.100   5.510E+00
   12.200   5.770E+00
   12.300   6.045E+00
   12.400   6.333E+00
   12.500   6.638E+00
   12.600   6.960E+00
   12.700   7.301E+00
   12.800   7.662E+00
   12.900   8.045E+00
   13.000   8.453E+00
   13.100   8.887E+00
   13.200   9.349E+00
   13.300   9.842E+00
   13.400   1.037E+01
   13.500   1.093E+01
   13.600   1.152E+01
   13.700   1.216E+01
   13.800   1.283E+01
   13.900   1.354E+01
   14.000   1.430E+01
   14.100   1.508E+01
   14.200   1.591E+01
   14.300   1.676E+01
   14.400   1.764E+01
   14.500   1.853E+01
   14.600   1.943E+01
   14.700   2.033E+01
   14.800   2.120E+01
   14.900   2.205E+01
   15.000   2.284E+01
   15.100   2.357E+01
   15.200   2.421E+01
   15.300   2.475E+01
   15.400   2.518E+01
   15.500   2.548E+01
   15.600   2.566E+01
   15.700   2.569E+01
   15.800   2.560E+01
   15.900   2.537E+01
   16.000   2.502E+01
   16.100   2.457E+01
   16.200   2.402E+01
   16.300   2.340E+01
   16.400   2.271E+01
   16.500   2.198E+01
   16.600   2.121E+01
   16.700   2.043E+01
   16.800   1.964E+01
   16.900   1.885E+01
   17.000   1.807E+01
   17.100   1.731E+01
   17.200   1.657E+01
   17.300   1.585E+01
   17.400   1.517E+01
   17.500   1.451E+01
   17.600   1.388E+01
   17.700   1.328E+01
   17.800   1.270E+01
   17.900   1.215E+01
   18.000   1.163E+01
   18.100   1.114E+01
   18.200   1.067E+01
   18.300   1.022E+01
   18.400   9.789E+00
   18.500   9.381E+00
   18.600   8.993E+00
   18.700   8.623E+00
   18.800   8.271E+00
   18.900   7.936E+00
   19.000   7.618E+00
   19.100   7.315E+00
   19.200   7.027E+00
   19.300   6.753E+00
   19.400   6.494E+00
   19.500   6.247E+00
   19.600   6.013E+00
   19.700   5.791E+00
   19.800   5.581E+00
   19.900   5.381E+00
   20.000   5.191E+00
   20.100   5.011E+00
   20.200   4.839E+00
   20.300   4.677E+00
   20.400   4.522E+00
   20.500   4.375E+00
   20.600   4.235E+00
   20.700   4.102E+00
   20.800   3.975E+00
   20.900   3.854E+00
   21.000   3.738E+00
   21.100   3.628E+00
   21.200   3.523E+00
   21.300   3.423E+00
   21.400   3.326E+00
   21.500   3.235E+00
   21.600   3.147E+00
   21.700   3.062E+00
   21.800   2.981E+00
   21.900   2.904E+00
   22.000   2.830E+00
   22.100   2.758E+00
   22.200   2.690E+00
   22.300   2.624E+00
   22.400   2.560E+00
   22.500   2.499E+00
   22.600   2.441E+00
   22.700   2.384E+00
   22.800   2.330E+00
   22.900   2.277E+00
   23.000   2.227E+00
   23.100   2.178E+00
   23.200   2.131E+00
   23.300   2.085E+00
   23.400   2.041E+00
   23.500   1.998E+00
   23.600   1.957E+00
   23.700   1.918E+00
   23.800   1.879E+00
   23.900   1.842E+00
   24.000   1.806E+00
   24.100   1.771E+00
   24.200   1.737E+00
   24.300   1.704E+00
   24.400   1.672E+00
   24.500   1.641E+00
   24.600   1.611E+00
   24.700   1.582E+00
   24.800   1.554E+00
   24.900   1.526E+00
   25.000   1.500E+00
   25.100   1.474E+00
   25.200   1.448E+00
   25.300   1.424E+00
   25.400   1.400E+00
   25.500   1.377E+00
   25.600   1.354E+00
   25.700   1.332E+00
   25.800   1.311E+00
   25.900   1.290E+00
   26.000   1.269E+00
   26.100   1.249E+00
   26.200   1.230E+00
   26.300   1.211E+00
   26.400   1.193E+00
   26.500   1.175E+00
   26.600   1.157E+00
   26.700   1.140E+00
   26.800   1.123E+00
   26.900   1.107E+00
   27.000   1.091E+00
   27.100   1.076E+00
   27.200   1.060E+00
   27.300   1.046E+00
   27.400   1.031E+00
   27.500   1.017E+00
   27.600   1.003E+00
   27.700   9.893E-01
   27.800   9.760E-01
   27.900   9.630E-01
   28.000   9.503E-01
   28.100   9.379E-01
   28.200   9.257E-01
   28.300   9.137E-01
   28.400   9.020E-01
   28.500   8.906E-01
   28.600   8.794E-01
   28.700   8.684E-01
   28.800   8.576E-01
   28.900   8.470E-01
   29.000   8.367E-01
   29.100   8.266E-01
   29.200   8.166E-01
   29.300   8.069E-01
   29.400   7.973E-01
   29.500   7.879E-01
   29.600   7.787E-01
   29.700   7.697E-01
   29.800   7.608E-01
   29.900   7.521E-01
   30.000   7.436E-01
 
 Z=  54 A= 133  D1M-QRPA-Inter
 E[MeV]  fQRPA[mb/MeV]
    0.100   1.140E-04
    0.200   4.502E-04
    0.300   9.930E-04
    0.400   1.722E-03
    0.500   2.617E-03
    0.600   3.663E-03
    0.700   4.847E-03
    0.800   6.166E-03
    0.900   7.615E-03
    1.000   9.197E-03
    1.100   1.091E-02
    1.200   1.277E-02
    1.300   1.477E-02
    1.400   1.692E-02
    1.500   1.922E-02
    1.600   2.168E-02
    1.700   2.430E-02
    1.800   2.709E-02
    1.900   3.006E-02
    2.000   3.321E-02
    2.100   3.653E-02
    2.200   4.005E-02
    2.300   4.376E-02
    2.400   4.767E-02
    2.500   5.179E-02
    2.600   5.612E-02
    2.700   6.066E-02
    2.800   6.542E-02
    2.900   7.041E-02
    3.000   7.563E-02
    3.100   8.109E-02
    3.200   8.680E-02
    3.300   9.276E-02
    3.400   9.899E-02
    3.500   1.055E-01
    3.600   1.123E-01
    3.700   1.193E-01
    3.800   1.267E-01
    3.900   1.343E-01
    4.000   1.423E-01
    4.100   1.506E-01
    4.200   1.593E-01
    4.300   1.683E-01
    4.400   1.777E-01
    4.500   1.875E-01
    4.600   1.977E-01
    4.700   2.083E-01
    4.800   2.193E-01
    4.900   2.309E-01
    5.000   2.429E-01
    5.100   2.553E-01
    5.200   2.684E-01
    5.300   2.819E-01
    5.400   2.961E-01
    5.500   3.108E-01
    5.600   3.262E-01
    5.700   3.422E-01
    5.800   3.589E-01
    5.900   3.763E-01
    6.000   3.945E-01
    6.100   4.134E-01
    6.200   4.332E-01
    6.300   4.539E-01
    6.400   4.755E-01
    6.500   4.981E-01
    6.600   5.217E-01
    6.700   5.464E-01
    6.800   5.723E-01
    6.900   5.994E-01
    7.000   6.277E-01
    7.100   6.574E-01
    7.200   6.886E-01
    7.300   7.212E-01
    7.400   7.555E-01
    7.500   7.914E-01
    7.600   8.291E-01
    7.700   8.686E-01
    7.800   9.101E-01
    7.900   9.536E-01
    8.000   9.993E-01
    8.100   1.047E+00
    8.200   1.097E+00
    8.300   1.150E+00
    8.400   1.205E+00
    8.500   1.263E+00
    8.600   1.323E+00
    8.700   1.386E+00
    8.800   1.452E+00
    8.900   1.521E+00
    9.000   1.594E+00
    9.100   1.669E+00
    9.200   1.748E+00
    9.300   1.831E+00
    9.400   1.917E+00
    9.500   2.008E+00
    9.600   2.103E+00
    9.700   2.202E+00
    9.800   2.307E+00
    9.900   2.417E+00
   10.000   2.532E+00
   10.100   2.653E+00
   10.200   2.781E+00
   10.300   2.915E+00
   10.400   3.056E+00
   10.500   3.204E+00
   10.600   3.360E+00
   10.700   3.525E+00
   10.800   3.698E+00
   10.900   3.881E+00
   11.000   4.074E+00
   11.100   4.277E+00
   11.200   4.492E+00
   11.300   4.720E+00
   11.400   4.960E+00
   11.500   5.214E+00
   11.600   5.483E+00
   11.700   5.767E+00
   11.800   6.067E+00
   11.900   6.385E+00
   12.000   6.721E+00
   12.100   7.076E+00
   12.200   7.451E+00
   12.300   7.848E+00
   12.400   8.266E+00
   12.500   8.707E+00
   12.600   9.171E+00
   12.700   9.660E+00
   12.800   1.017E+01
   12.900   1.071E+01
   13.000   1.128E+01
   13.100   1.187E+01
   13.200   1.248E+01
   13.300   1.312E+01
   13.400   1.378E+01
   13.500   1.446E+01
   13.600   1.515E+01
   13.700   1.586E+01
   13.800   1.658E+01
   13.900   1.730E+01
   14.000   1.802E+01
   14.100   1.873E+01
   14.200   1.943E+01
   14.300   2.010E+01
   14.400   2.074E+01
   14.500   2.134E+01
   14.600   2.189E+01
   14.700   2.238E+01
   14.800   2.279E+01
   14.900   2.313E+01
   15.000   2.337E+01
   15.100   2.353E+01
   15.200   2.359E+01
   15.300   2.355E+01
   15.400   2.341E+01
   15.500   2.318E+01
   15.600   2.287E+01
   15.700   2.248E+01
   15.800   2.201E+01
   15.900   2.149E+01
   16.000   2.092E+01
   16.100   2.030E+01
   16.200   1.966E+01
   16.300   1.901E+01
   16.400   1.834E+01
   16.500   1.767E+01
   16.600   1.700E+01
   16.700   1.635E+01
   16.800   1.571E+01
   16.900   1.509E+01
   17.000   1.449E+01
   17.100   1.391E+01
   17.200   1.335E+01
   17.300   1.281E+01
   17.400   1.230E+01
   17.500   1.181E+01
   17.600   1.134E+01
   17.700   1.090E+01
   17.800   1.047E+01
   17.900   1.006E+01
   18.000   9.662E+00
   18.100   9.285E+00
   18.200   8.923E+00
   18.300   8.575E+00
   18.400   8.243E+00
   18.500   7.923E+00
   18.600   7.617E+00
   18.700   7.324E+00
   18.800   7.044E+00
   18.900   6.776E+00
   19.000   6.520E+00
   19.100   6.276E+00
   19.200   6.044E+00
   19.300   5.822E+00
   19.400   5.611E+00
   19.500   5.410E+00
   19.600   5.219E+00
   19.700   5.037E+00
   19.800   4.864E+00
   19.900   4.699E+00
   20.000   4.543E+00
   20.100   4.394E+00
   20.200   4.252E+00
   20.300   4.117E+00
   20.400   3.989E+00
   20.500   3.866E+00
   20.600   3.750E+00
   20.700   3.638E+00
   20.800   3.532E+00
   20.900   3.430E+00
   21.000   3.333E+00
   21.100   3.240E+00
   21.200   3.152E+00
   21.300   3.067E+00
   21.400   2.985E+00
   21.500   2.907E+00
   21.600   2.832E+00
   21.700   2.760E+00
   21.800   2.691E+00
   21.900   2.625E+00
   22.000   2.561E+00
   22.100   2.500E+00
   22.200   2.441E+00
   22.300   2.385E+00
   22.400   2.330E+00
   22.500   2.277E+00
   22.600   2.227E+00
   22.700   2.178E+00
   22.800   2.130E+00
   22.900   2.085E+00
   23.000   2.041E+00
   23.100   1.998E+00
   23.200   1.957E+00
   23.300   1.917E+00
   23.400   1.879E+00
   23.500   1.841E+00
   23.600   1.805E+00
   23.700   1.770E+00
   23.800   1.736E+00
   23.900   1.704E+00
   24.000   1.672E+00
   24.100   1.641E+00
   24.200   1.611E+00
   24.300   1.582E+00
   24.400   1.553E+00
   24.500   1.526E+00
   24.600   1.499E+00
   24.700   1.473E+00
   24.800   1.448E+00
   24.900   1.424E+00
   25.000   1.400E+00
   25.100   1.377E+00
   25.200   1.354E+00
   25.300   1.332E+00
   25.400   1.311E+00
   25.500   1.290E+00
   25.600   1.269E+00
   25.700   1.250E+00
   25.800   1.230E+00
   25.900   1.211E+00
   26.000   1.193E+00
   26.100   1.175E+00
   26.200   1.158E+00
   26.300   1.141E+00
   26.400   1.124E+00
   26.500   1.108E+00
   26.600   1.092E+00
   26.700   1.076E+00
   26.800   1.061E+00
   26.900   1.046E+00
   27.000   1.032E+00
   27.100   1.018E+00
   27.200   1.004E+00
   27.300   9.901E-01
   27.400   9.769E-01
   27.500   9.639E-01
   27.600   9.512E-01
   27.700   9.388E-01
   27.800   9.266E-01
   27.900   9.147E-01
   28.000   9.030E-01
   28.100   8.916E-01
   28.200   8.804E-01
   28.300   8.694E-01
   28.400   8.587E-01
   28.500   8.481E-01
   28.600   8.378E-01
   28.700   8.277E-01
   28.800   8.177E-01
   28.900   8.080E-01
   29.000   7.985E-01
   29.100   7.891E-01
   29.200   7.799E-01
   29.300   7.709E-01
   29.400   7.620E-01
   29.500   7.533E-01
   29.600   7.448E-01
   29.700   7.364E-01
   29.800   7.282E-01
   29.900   7.201E-01
   30.000   7.122E-01
 
 Z=  54 A= 134  D1M-QRPA
   E[MeV]   fQRPA[mb/MeV]
    0.100   1.867E-04
    0.200   7.275E-04
    0.300   1.572E-03
    0.400   2.657E-03
    0.500   3.925E-03
    0.600   5.333E-03
    0.700   6.854E-03
    0.800   8.476E-03
    0.900   1.020E-02
    1.000   1.203E-02
    1.100   1.397E-02
    1.200   1.603E-02
    1.300   1.823E-02
    1.400   2.057E-02
    1.500   2.305E-02
    1.600   2.570E-02
    1.700   2.852E-02
    1.800   3.151E-02
    1.900   3.469E-02
    2.000   3.806E-02
    2.100   4.162E-02
    2.200   4.538E-02
    2.300   4.936E-02
    2.400   5.355E-02
    2.500   5.797E-02
    2.600   6.261E-02
    2.700   6.749E-02
    2.800   7.262E-02
    2.900   7.800E-02
    3.000   8.364E-02
    3.100   8.954E-02
    3.200   9.572E-02
    3.300   1.022E-01
    3.400   1.090E-01
    3.500   1.160E-01
    3.600   1.234E-01
    3.700   1.311E-01
    3.800   1.392E-01
    3.900   1.476E-01
    4.000   1.563E-01
    4.100   1.655E-01
    4.200   1.750E-01
    4.300   1.850E-01
    4.400   1.954E-01
    4.500   2.062E-01
    4.600   2.174E-01
    4.700   2.292E-01
    4.800   2.415E-01
    4.900   2.542E-01
    5.000   2.675E-01
    5.100   2.814E-01
    5.200   2.959E-01
    5.300   3.109E-01
    5.400   3.267E-01
    5.500   3.430E-01
    5.600   3.601E-01
    5.700   3.779E-01
    5.800   3.965E-01
    5.900   4.159E-01
    6.000   4.361E-01
    6.100   4.572E-01
    6.200   4.792E-01
    6.300   5.022E-01
    6.400   5.263E-01
    6.500   5.515E-01
    6.600   5.778E-01
    6.700   6.053E-01
    6.800   6.342E-01
    6.900   6.644E-01
    7.000   6.961E-01
    7.100   7.293E-01
    7.200   7.641E-01
    7.300   8.006E-01
    7.400   8.390E-01
    7.500   8.793E-01
    7.600   9.216E-01
    7.700   9.660E-01
    7.800   1.013E+00
    7.900   1.062E+00
    8.000   1.113E+00
    8.100   1.167E+00
    8.200   1.224E+00
    8.300   1.284E+00
    8.400   1.346E+00
    8.500   1.412E+00
    8.600   1.481E+00
    8.700   1.553E+00
    8.800   1.629E+00
    8.900   1.709E+00
    9.000   1.792E+00
    9.100   1.880E+00
    9.200   1.972E+00
    9.300   2.069E+00
    9.400   2.171E+00
    9.500   2.279E+00
    9.600   2.392E+00
    9.700   2.511E+00
    9.800   2.637E+00
    9.900   2.770E+00
   10.000   2.909E+00
   10.100   3.057E+00
   10.200   3.213E+00
   10.300   3.378E+00
   10.400   3.552E+00
   10.500   3.735E+00
   10.600   3.930E+00
   10.700   4.136E+00
   10.800   4.354E+00
   10.900   4.586E+00
   11.000   4.832E+00
   11.100   5.093E+00
   11.200   5.370E+00
   11.300   5.666E+00
   11.400   5.981E+00
   11.500   6.316E+00
   11.600   6.673E+00
   11.700   7.054E+00
   11.800   7.460E+00
   11.900   7.892E+00
   12.000   8.352E+00
   12.100   8.841E+00
   12.200   9.360E+00
   12.300   9.911E+00
   12.400   1.049E+01
   12.500   1.111E+01
   12.600   1.176E+01
   12.700   1.243E+01
   12.800   1.314E+01
   12.900   1.388E+01
   13.000   1.464E+01
   13.100   1.542E+01
   13.200   1.621E+01
   13.300   1.701E+01
   13.400   1.781E+01
   13.500   1.860E+01
   13.600   1.938E+01
   13.700   2.012E+01
   13.800   2.083E+01
   13.900   2.149E+01
   14.000   2.209E+01
   14.100   2.263E+01
   14.200   2.309E+01
   14.300   2.346E+01
   14.400   2.374E+01
   14.500   2.392E+01
   14.600   2.400E+01
   14.700   2.397E+01
   14.800   2.383E+01
   14.900   2.360E+01
   15.000   2.327E+01
   15.100   2.285E+01
   15.200   2.236E+01
   15.300   2.179E+01
   15.400   2.118E+01
   15.500   2.052E+01
   15.600   1.983E+01
   15.700   1.913E+01
   15.800   1.842E+01
   15.900   1.771E+01
   16.000   1.701E+01
   16.100   1.632E+01
   16.200   1.566E+01
   16.300   1.502E+01
   16.400   1.440E+01
   16.500   1.382E+01
   16.600   1.326E+01
   16.700   1.273E+01
   16.800   1.223E+01
   16.900   1.175E+01
   17.000   1.130E+01
   17.100   1.087E+01
   17.200   1.046E+01
   17.300   1.007E+01
   17.400   9.707E+00
   17.500   9.356E+00
   17.600   9.020E+00
   17.700   8.699E+00
   17.800   8.390E+00
   17.900   8.093E+00
   18.000   7.806E+00
   18.100   7.529E+00
   18.200   7.261E+00
   18.300   7.002E+00
   18.400   6.752E+00
   18.500   6.510E+00
   18.600   6.277E+00
   18.700   6.052E+00
   18.800   5.836E+00
   18.900   5.628E+00
   19.000   5.429E+00
   19.100   5.239E+00
   19.200   5.056E+00
   19.300   4.882E+00
   19.400   4.716E+00
   19.500   4.557E+00
   19.600   4.406E+00
   19.700   4.261E+00
   19.800   4.124E+00
   19.900   3.993E+00
   20.000   3.868E+00
   20.100   3.748E+00
   20.200   3.635E+00
   20.300   3.526E+00
   20.400   3.423E+00
   20.500   3.324E+00
   20.600   3.229E+00
   20.700   3.139E+00
   20.800   3.053E+00
   20.900   2.970E+00
   21.000   2.891E+00
   21.100   2.815E+00
   21.200   2.742E+00
   21.300   2.673E+00
   21.400   2.606E+00
   21.500   2.542E+00
   21.600   2.480E+00
   21.700   2.420E+00
   21.800   2.363E+00
   21.900   2.308E+00
   22.000   2.256E+00
   22.100   2.205E+00
   22.200   2.156E+00
   22.300   2.108E+00
   22.400   2.062E+00
   22.500   2.018E+00
   22.600   1.976E+00
   22.700   1.935E+00
   22.800   1.895E+00
   22.900   1.856E+00
   23.000   1.819E+00
   23.100   1.783E+00
   23.200   1.748E+00
   23.300   1.715E+00
   23.400   1.682E+00
   23.500   1.650E+00
   23.600   1.620E+00
   23.700   1.590E+00
   23.800   1.561E+00
   23.900   1.533E+00
   24.000   1.505E+00
   24.100   1.479E+00
   24.200   1.453E+00
   24.300   1.428E+00
   24.400   1.404E+00
   24.500   1.380E+00
   24.600   1.357E+00
   24.700   1.335E+00
   24.800   1.313E+00
   24.900   1.292E+00
   25.000   1.271E+00
   25.100   1.251E+00
   25.200   1.231E+00
   25.300   1.212E+00
   25.400   1.194E+00
   25.500   1.175E+00
   25.600   1.158E+00
   25.700   1.140E+00
   25.800   1.124E+00
   25.900   1.107E+00
   26.000   1.091E+00
   26.100   1.075E+00
   26.200   1.060E+00
   26.300   1.045E+00
   26.400   1.030E+00
   26.500   1.016E+00
   26.600   1.002E+00
   26.700   9.882E-01
   26.800   9.748E-01
   26.900   9.617E-01
   27.000   9.489E-01
   27.100   9.364E-01
   27.200   9.241E-01
   27.300   9.121E-01
   27.400   9.003E-01
   27.500   8.888E-01
   27.600   8.776E-01
   27.700   8.665E-01
   27.800   8.557E-01
   27.900   8.451E-01
   28.000   8.347E-01
   28.100   8.245E-01
   28.200   8.145E-01
   28.300   8.047E-01
   28.400   7.951E-01
   28.500   7.857E-01
   28.600   7.765E-01
   28.700   7.674E-01
   28.800   7.585E-01
   28.900   7.498E-01
   29.000   7.412E-01
   29.100   7.328E-01
   29.200   7.245E-01
   29.300   7.164E-01
   29.400   7.085E-01
   29.500   7.007E-01
   29.600   6.930E-01
   29.700   6.854E-01
   29.800   6.780E-01
   29.900   6.708E-01
   30.000   6.636E-01
 
 Z=  54 A= 135  D1M-QRPA-Inter
 E[MeV]  fQRPA[mb/MeV]
    0.100   1.111E-04
    0.200   4.388E-04
    0.300   9.678E-04
    0.400   1.678E-03
    0.500   2.551E-03
    0.600   3.569E-03
    0.700   4.724E-03
    0.800   6.008E-03
    0.900   7.420E-03
    1.000   8.960E-03
    1.100   1.063E-02
    1.200   1.244E-02
    1.300   1.439E-02
    1.400   1.648E-02
    1.500   1.872E-02
    1.600   2.111E-02
    1.700   2.366E-02
    1.800   2.638E-02
    1.900   2.926E-02
    2.000   3.232E-02
    2.100   3.556E-02
    2.200   3.898E-02
    2.300   4.258E-02
    2.400   4.639E-02
    2.500   5.039E-02
    2.600   5.459E-02
    2.700   5.901E-02
    2.800   6.364E-02
    2.900   6.849E-02
    3.000   7.358E-02
    3.100   7.890E-02
    3.200   8.446E-02
    3.300   9.028E-02
    3.400   9.635E-02
    3.500   1.027E-01
    3.600   1.093E-01
    3.700   1.162E-01
    3.800   1.234E-01
    3.900   1.309E-01
    4.000   1.388E-01
    4.100   1.469E-01
    4.200   1.554E-01
    4.300   1.643E-01
    4.400   1.735E-01
    4.500   1.831E-01
    4.600   1.932E-01
    4.700   2.036E-01
    4.800   2.145E-01
    4.900   2.258E-01
    5.000   2.376E-01
    5.100   2.498E-01
    5.200   2.626E-01
    5.300   2.759E-01
    5.400   2.898E-01
    5.500   3.043E-01
    5.600   3.194E-01
    5.700   3.351E-01
    5.800   3.515E-01
    5.900   3.685E-01
    6.000   3.864E-01
    6.100   4.050E-01
    6.200   4.244E-01
    6.300   4.446E-01
    6.400   4.658E-01
    6.500   4.879E-01
    6.600   5.110E-01
    6.700   5.352E-01
    6.800   5.605E-01
    6.900   5.870E-01
    7.000   6.147E-01
    7.100   6.438E-01
    7.200   6.742E-01
    7.300   7.061E-01
    7.400   7.395E-01
    7.500   7.746E-01
    7.600   8.114E-01
    7.700   8.499E-01
    7.800   8.903E-01
    7.900   9.328E-01
    8.000   9.773E-01
    8.100   1.024E+00
    8.200   1.073E+00
    8.300   1.124E+00
    8.400   1.178E+00
    8.500   1.234E+00
    8.600   1.293E+00
    8.700   1.355E+00
    8.800   1.420E+00
    8.900   1.489E+00
    9.000   1.560E+00
    9.100   1.635E+00
    9.200   1.714E+00
    9.300   1.797E+00
    9.400   1.884E+00
    9.500   1.975E+00
    9.600   2.072E+00
    9.700   2.173E+00
    9.800   2.279E+00
    9.900   2.391E+00
   10.000   2.509E+00
   10.100   2.633E+00
   10.200   2.764E+00
   10.300   2.901E+00
   10.400   3.045E+00
   10.500   3.198E+00
   10.600   3.358E+00
   10.700   3.527E+00
   10.800   3.706E+00
   10.900   3.894E+00
   11.000   4.093E+00
   11.100   4.304E+00
   11.200   4.526E+00
   11.300   4.762E+00
   11.400   5.011E+00
   11.500   5.275E+00
   11.600   5.555E+00
   11.700   5.852E+00
   11.800   6.167E+00
   11.900   6.500E+00
   12.000   6.854E+00
   12.100   7.229E+00
   12.200   7.627E+00
   12.300   8.049E+00
   12.400   8.496E+00
   12.500   8.968E+00
   12.600   9.468E+00
   12.700   9.994E+00
   12.800   1.055E+01
   12.900   1.113E+01
   13.000   1.174E+01
   13.100   1.238E+01
   13.200   1.304E+01
   13.300   1.372E+01
   13.400   1.443E+01
   13.500   1.515E+01
   13.600   1.588E+01
   13.700   1.662E+01
   13.800   1.736E+01
   13.900   1.809E+01
   14.000   1.880E+01
   14.100   1.949E+01
   14.200   2.015E+01
   14.300   2.076E+01
   14.400   2.132E+01
   14.500   2.181E+01
   14.600   2.222E+01
   14.700   2.255E+01
   14.800   2.278E+01
   14.900   2.291E+01
   15.000   2.295E+01
   15.100   2.288E+01
   15.200   2.272E+01
   15.300   2.246E+01
   15.400   2.212E+01
   15.500   2.170E+01
   15.600   2.122E+01
   15.700   2.068E+01
   15.800   2.009E+01
   15.900   1.947E+01
   16.000   1.883E+01
   16.100   1.817E+01
   16.200   1.751E+01
   16.300   1.685E+01
   16.400   1.620E+01
   16.500   1.556E+01
   16.600   1.493E+01
   16.700   1.434E+01
   16.800   1.376E+01
   16.900   1.321E+01
   17.000   1.268E+01
   17.100   1.218E+01
   17.200   1.171E+01
   17.300   1.126E+01
   17.400   1.083E+01
   17.500   1.043E+01
   17.600   1.005E+01
   17.700   9.692E+00
   17.800   9.351E+00
   17.900   9.027E+00
   18.000   8.718E+00
   18.100   8.424E+00
   18.200   8.143E+00
   18.300   7.873E+00
   18.400   7.615E+00
   18.500   7.366E+00
   18.600   7.126E+00
   18.700   6.895E+00
   18.800   6.671E+00
   18.900   6.455E+00
   19.000   6.246E+00
   19.100   6.044E+00
   19.200   5.848E+00
   19.300   5.659E+00
   19.400   5.475E+00
   19.500   5.298E+00
   19.600   5.127E+00
   19.700   4.962E+00
   19.800   4.802E+00
   19.900   4.647E+00
   20.000   4.498E+00
   20.100   4.355E+00
   20.200   4.217E+00
   20.300   4.084E+00
   20.400   3.956E+00
   20.500   3.833E+00
   20.600   3.715E+00
   20.700   3.602E+00
   20.800   3.493E+00
   20.900   3.390E+00
   21.000   3.290E+00
   21.100   3.195E+00
   21.200   3.103E+00
   21.300   3.016E+00
   21.400   2.932E+00
   21.500   2.852E+00
   21.600   2.776E+00
   21.700   2.702E+00
   21.800   2.631E+00
   21.900   2.564E+00
   22.000   2.499E+00
   22.100   2.437E+00
   22.200   2.377E+00
   22.300   2.320E+00
   22.400   2.264E+00
   22.500   2.211E+00
   22.600   2.160E+00
   22.700   2.111E+00
   22.800   2.064E+00
   22.900   2.018E+00
   23.000   1.974E+00
   23.100   1.932E+00
   23.200   1.891E+00
   23.300   1.851E+00
   23.400   1.813E+00
   23.500   1.776E+00
   23.600   1.741E+00
   23.700   1.706E+00
   23.800   1.673E+00
   23.900   1.640E+00
   24.000   1.609E+00
   24.100   1.579E+00
   24.200   1.549E+00
   24.300   1.521E+00
   24.400   1.493E+00
   24.500   1.466E+00
   24.600   1.440E+00
   24.700   1.415E+00
   24.800   1.390E+00
   24.900   1.367E+00
   25.000   1.343E+00
   25.100   1.321E+00
   25.200   1.299E+00
   25.300   1.278E+00
   25.400   1.257E+00
   25.500   1.237E+00
   25.600   1.217E+00
   25.700   1.198E+00
   25.800   1.179E+00
   25.900   1.161E+00
   26.000   1.143E+00
   26.100   1.126E+00
   26.200   1.109E+00
   26.300   1.092E+00
   26.400   1.076E+00
   26.500   1.060E+00
   26.600   1.045E+00
   26.700   1.030E+00
   26.800   1.016E+00
   26.900   1.001E+00
   27.000   9.873E-01
   27.100   9.736E-01
   27.200   9.603E-01
   27.300   9.473E-01
   27.400   9.345E-01
   27.500   9.220E-01
   27.600   9.098E-01
   27.700   8.979E-01
   27.800   8.862E-01
   27.900   8.748E-01
   28.000   8.636E-01
   28.100   8.526E-01
   28.200   8.418E-01
   28.300   8.313E-01
   28.400   8.210E-01
   28.500   8.109E-01
   28.600   8.010E-01
   28.700   7.913E-01
   28.800   7.818E-01
   28.900   7.725E-01
   29.000   7.633E-01
   29.100   7.543E-01
   29.200   7.455E-01
   29.300   7.369E-01
   29.400   7.284E-01
   29.500   7.201E-01
   29.600   7.119E-01
   29.700   7.039E-01
   29.800   6.960E-01
   29.900   6.883E-01
   30.000   6.807E-01
 
 Z=  54 A= 136  D1M-QRPA
   E[MeV]   fQRPA[mb/MeV]
    0.100   6.526E-05
    0.200   2.611E-04
    0.300   5.878E-04
    0.400   1.046E-03
    0.500   1.635E-03
    0.600   2.357E-03
    0.700   3.212E-03
    0.800   4.201E-03
    0.900   5.325E-03
    1.000   6.585E-03
    1.100   7.984E-03
    1.200   9.521E-03
    1.300   1.120E-02
    1.400   1.302E-02
    1.500   1.499E-02
    1.600   1.710E-02
    1.700   1.936E-02
    1.800   2.178E-02
    1.900   2.435E-02
    2.000   2.708E-02
    2.100   2.997E-02
    2.200   3.302E-02
    2.300   3.624E-02
    2.400   3.964E-02
    2.500   4.321E-02
    2.600   4.696E-02
    2.700   5.089E-02
    2.800   5.502E-02
    2.900   5.934E-02
    3.000   6.386E-02
    3.100   6.858E-02
    3.200   7.352E-02
    3.300   7.868E-02
    3.400   8.406E-02
    3.500   8.967E-02
    3.600   9.553E-02
    3.700   1.016E-01
    3.800   1.080E-01
    3.900   1.146E-01
    4.000   1.215E-01
    4.100   1.287E-01
    4.200   1.362E-01
    4.300   1.440E-01
    4.400   1.521E-01
    4.500   1.605E-01
    4.600   1.693E-01
    4.700   1.784E-01
    4.800   1.879E-01
    4.900   1.978E-01
    5.000   2.081E-01
    5.100   2.188E-01
    5.200   2.300E-01
    5.300   2.416E-01
    5.400   2.537E-01
    5.500   2.663E-01
    5.600   2.794E-01
    5.700   2.931E-01
    5.800   3.073E-01
    5.900   3.222E-01
    6.000   3.377E-01
    6.100   3.539E-01
    6.200   3.707E-01
    6.300   3.883E-01
    6.400   4.067E-01
    6.500   4.259E-01
    6.600   4.459E-01
    6.700   4.669E-01
    6.800   4.888E-01
    6.900   5.116E-01
    7.000   5.356E-01
    7.100   5.607E-01
    7.200   5.869E-01
    7.300   6.143E-01
    7.400   6.431E-01
    7.500   6.732E-01
    7.600   7.047E-01
    7.700   7.377E-01
    7.800   7.723E-01
    7.900   8.085E-01
    8.000   8.464E-01
    8.100   8.861E-01
    8.200   9.277E-01
    8.300   9.713E-01
    8.400   1.017E+00
    8.500   1.065E+00
    8.600   1.115E+00
    8.700   1.167E+00
    8.800   1.222E+00
    8.900   1.279E+00
    9.000   1.340E+00
    9.100   1.403E+00
    9.200   1.470E+00
    9.300   1.539E+00
    9.400   1.613E+00
    9.500   1.689E+00
    9.600   1.770E+00
    9.700   1.855E+00
    9.800   1.944E+00
    9.900   2.037E+00
   10.000   2.135E+00
   10.100   2.237E+00
   10.200   2.345E+00
   10.300   2.458E+00
   10.400   2.576E+00
   10.500   2.700E+00
   10.600   2.831E+00
   10.700   2.968E+00
   10.800   3.111E+00
   10.900   3.262E+00
   11.000   3.421E+00
   11.100   3.588E+00
   11.200   3.764E+00
   11.300   3.948E+00
   11.400   4.142E+00
   11.500   4.347E+00
   11.600   4.562E+00
   11.700   4.789E+00
   11.800   5.029E+00
   11.900   5.282E+00
   12.000   5.549E+00
   12.100   5.832E+00
   12.200   6.131E+00
   12.300   6.449E+00
   12.400   6.785E+00
   12.500   7.143E+00
   12.600   7.522E+00
   12.700   7.925E+00
   12.800   8.353E+00
   12.900   8.808E+00
   13.000   9.291E+00
   13.100   9.804E+00
   13.200   1.035E+01
   13.300   1.092E+01
   13.400   1.153E+01
   13.500   1.217E+01
   13.600   1.284E+01
   13.700   1.354E+01
   13.800   1.426E+01
   13.900   1.502E+01
   14.000   1.579E+01
   14.100   1.657E+01
   14.200   1.735E+01
   14.300   1.813E+01
   14.400   1.889E+01
   14.500   1.961E+01
   14.600   2.030E+01
   14.700   2.092E+01
   14.800   2.148E+01
   14.900   2.195E+01
   15.000   2.233E+01
   15.100   2.261E+01
   15.200   2.278E+01
   15.300   2.284E+01
   15.400   2.280E+01
   15.500   2.265E+01
   15.600   2.240E+01
   15.700   2.205E+01
   15.800   2.163E+01
   15.900   2.113E+01
   16.000   2.057E+01
   16.100   1.996E+01
   16.200   1.932E+01
   16.300   1.865E+01
   16.400   1.796E+01
   16.500   1.728E+01
   16.600   1.660E+01
   16.700   1.593E+01
   16.800   1.528E+01
   16.900   1.465E+01
   17.000   1.404E+01
   17.100   1.347E+01
   17.200   1.293E+01
   17.300   1.241E+01
   17.400   1.193E+01
   17.500   1.148E+01
   17.600   1.105E+01
   17.700   1.065E+01
   17.800   1.028E+01
   17.900   9.932E+00
   18.000   9.606E+00
   18.100   9.298E+00
   18.200   9.008E+00
   18.300   8.734E+00
   18.400   8.472E+00
   18.500   8.222E+00
   18.600   7.981E+00
   18.700   7.748E+00
   18.800   7.523E+00
   18.900   7.303E+00
   19.000   7.088E+00
   19.100   6.878E+00
   19.200   6.672E+00
   19.300   6.470E+00
   19.400   6.272E+00
   19.500   6.077E+00
   19.600   5.886E+00
   19.700   5.699E+00
   19.800   5.516E+00
   19.900   5.337E+00
   20.000   5.162E+00
   20.100   4.991E+00
   20.200   4.826E+00
   20.300   4.665E+00
   20.400   4.510E+00
   20.500   4.360E+00
   20.600   4.216E+00
   20.700   4.077E+00
   20.800   3.944E+00
   20.900   3.816E+00
   21.000   3.694E+00
   21.100   3.577E+00
   21.200   3.465E+00
   21.300   3.358E+00
   21.400   3.255E+00
   21.500   3.158E+00
   21.600   3.065E+00
   21.700   2.976E+00
   21.800   2.890E+00
   21.900   2.809E+00
   22.000   2.731E+00
   22.100   2.657E+00
   22.200   2.586E+00
   22.300   2.518E+00
   22.400   2.453E+00
   22.500   2.390E+00
   22.600   2.330E+00
   22.700   2.273E+00
   22.800   2.218E+00
   22.900   2.164E+00
   23.000   2.114E+00
   23.100   2.065E+00
   23.200   2.017E+00
   23.300   1.972E+00
   23.400   1.928E+00
   23.500   1.886E+00
   23.600   1.846E+00
   23.700   1.806E+00
   23.800   1.769E+00
   23.900   1.732E+00
   24.000   1.697E+00
   24.100   1.663E+00
   24.200   1.630E+00
   24.300   1.598E+00
   24.400   1.567E+00
   24.500   1.537E+00
   24.600   1.508E+00
   24.700   1.480E+00
   24.800   1.453E+00
   24.900   1.426E+00
   25.000   1.401E+00
   25.100   1.376E+00
   25.200   1.352E+00
   25.300   1.328E+00
   25.400   1.305E+00
   25.500   1.283E+00
   25.600   1.262E+00
   25.700   1.241E+00
   25.800   1.220E+00
   25.900   1.201E+00
   26.000   1.181E+00
   26.100   1.162E+00
   26.200   1.144E+00
   26.300   1.126E+00
   26.400   1.109E+00
   26.500   1.092E+00
   26.600   1.075E+00
   26.700   1.059E+00
   26.800   1.044E+00
   26.900   1.028E+00
   27.000   1.013E+00
   27.100   9.987E-01
   27.200   9.844E-01
   27.300   9.705E-01
   27.400   9.569E-01
   27.500   9.436E-01
   27.600   9.306E-01
   27.700   9.179E-01
   27.800   9.054E-01
   27.900   8.933E-01
   28.000   8.814E-01
   28.100   8.698E-01
   28.200   8.584E-01
   28.300   8.472E-01
   28.400   8.363E-01
   28.500   8.256E-01
   28.600   8.152E-01
   28.700   8.049E-01
   28.800   7.949E-01
   28.900   7.851E-01
   29.000   7.755E-01
   29.100   7.660E-01
   29.200   7.568E-01
   29.300   7.477E-01
   29.400   7.388E-01
   29.500   7.301E-01
   29.600   7.215E-01
   29.700   7.131E-01
   29.800   7.049E-01
   29.900   6.968E-01
   30.000   6.889E-01
 
 Z=  54 A= 137  D1M-QRPA-Inter
 E[MeV]  fQRPA[mb/MeV]
    0.100   7.699E-05
    0.200   3.080E-04
    0.300   6.934E-04
    0.400   1.234E-03
    0.500   1.929E-03
    0.600   2.781E-03
    0.700   3.790E-03
    0.800   4.958E-03
    0.900   6.286E-03
    1.000   7.775E-03
    1.100   9.427E-03
    1.200   1.124E-02
    1.300   1.323E-02
    1.400   1.539E-02
    1.500   1.771E-02
    1.600   2.022E-02
    1.700   2.290E-02
    1.800   2.576E-02
    1.900   2.881E-02
    2.000   3.205E-02
    2.100   3.548E-02
    2.200   3.912E-02
    2.300   4.295E-02
    2.400   4.699E-02
    2.500   5.125E-02
    2.600   5.572E-02
    2.700   6.042E-02
    2.800   6.536E-02
    2.900   7.053E-02
    3.000   7.594E-02
    3.100   8.162E-02
    3.200   8.755E-02
    3.300   9.375E-02
    3.400   1.002E-01
    3.500   1.070E-01
    3.600   1.141E-01
    3.700   1.215E-01
    3.800   1.292E-01
    3.900   1.372E-01
    4.000   1.456E-01
    4.100   1.544E-01
    4.200   1.635E-01
    4.300   1.730E-01
    4.400   1.830E-01
    4.500   1.933E-01
    4.600   2.041E-01
    4.700   2.154E-01
    4.800   2.271E-01
    4.900   2.394E-01
    5.000   2.522E-01
    5.100   2.656E-01
    5.200   2.795E-01
    5.300   2.940E-01
    5.400   3.092E-01
    5.500   3.251E-01
    5.600   3.416E-01
    5.700   3.589E-01
    5.800   3.769E-01
    5.900   3.958E-01
    6.000   4.155E-01
    6.100   4.361E-01
    6.200   4.576E-01
    6.300   4.800E-01
    6.400   5.035E-01
    6.500   5.280E-01
    6.600   5.536E-01
    6.700   5.803E-01
    6.800   6.081E-01
    6.900   6.372E-01
    7.000   6.676E-01
    7.100   6.992E-01
    7.200   7.321E-01
    7.300   7.665E-01
    7.400   8.022E-01
    7.500   8.394E-01
    7.600   8.782E-01
    7.700   9.185E-01
    7.800   9.604E-01
    7.900   1.004E+00
    8.000   1.049E+00
    8.100   1.097E+00
    8.200   1.146E+00
    8.300   1.197E+00
    8.400   1.250E+00
    8.500   1.305E+00
    8.600   1.363E+00
    8.700   1.423E+00
    8.800   1.486E+00
    8.900   1.551E+00
    9.000   1.620E+00
    9.100   1.691E+00
    9.200   1.765E+00
    9.300   1.842E+00
    9.400   1.923E+00
    9.500   2.008E+00
    9.600   2.096E+00
    9.700   2.188E+00
    9.800   2.284E+00
    9.900   2.384E+00
   10.000   2.488E+00
   10.100   2.597E+00
   10.200   2.711E+00
   10.300   2.830E+00
   10.400   2.954E+00
   10.500   3.083E+00
   10.600   3.218E+00
   10.700   3.359E+00
   10.800   3.507E+00
   10.900   3.661E+00
   11.000   3.823E+00
   11.100   3.992E+00
   11.200   4.169E+00
   11.300   4.355E+00
   11.400   4.550E+00
   11.500   4.755E+00
   11.600   4.970E+00
   11.700   5.196E+00
   11.800   5.433E+00
   11.900   5.684E+00
   12.000   5.948E+00
   12.100   6.226E+00
   12.200   6.520E+00
   12.300   6.831E+00
   12.400   7.159E+00
   12.500   7.506E+00
   12.600   7.874E+00
   12.700   8.263E+00
   12.800   8.675E+00
   12.900   9.111E+00
   13.000   9.572E+00
   13.100   1.006E+01
   13.200   1.057E+01
   13.300   1.111E+01
   13.400   1.168E+01
   13.500   1.227E+01
   13.600   1.289E+01
   13.700   1.353E+01
   13.800   1.419E+01
   13.900   1.487E+01
   14.000   1.556E+01
   14.100   1.625E+01
   14.200   1.694E+01
   14.300   1.762E+01
   14.400   1.828E+01
   14.500   1.891E+01
   14.600   1.950E+01
   14.700   2.003E+01
   14.800   2.050E+01
   14.900   2.090E+01
   15.000   2.123E+01
   15.100   2.146E+01
   15.200   2.160E+01
   15.300   2.166E+01
   15.400   2.162E+01
   15.500   2.149E+01
   15.600   2.128E+01
   15.700   2.098E+01
   15.800   2.062E+01
   15.900   2.020E+01
   16.000   1.972E+01
   16.100   1.920E+01
   16.200   1.864E+01
   16.300   1.807E+01
   16.400   1.748E+01
   16.500   1.688E+01
   16.600   1.629E+01
   16.700   1.570E+01
   16.800   1.512E+01
   16.900   1.456E+01
   17.000   1.402E+01
   17.100   1.350E+01
   17.200   1.301E+01
   17.300   1.254E+01
   17.400   1.209E+01
   17.500   1.166E+01
   17.600   1.126E+01
   17.700   1.089E+01
   17.800   1.053E+01
   17.900   1.019E+01
   18.000   9.872E+00
   18.100   9.569E+00
   18.200   9.280E+00
   18.300   9.005E+00
   18.400   8.742E+00
   18.500   8.490E+00
   18.600   8.246E+00
   18.700   8.010E+00
   18.800   7.782E+00
   18.900   7.560E+00
   19.000   7.344E+00
   19.100   7.133E+00
   19.200   6.927E+00
   19.300   6.725E+00
   19.400   6.528E+00
   19.500   6.335E+00
   19.600   6.147E+00
   19.700   5.962E+00
   19.800   5.782E+00
   19.900   5.606E+00
   20.000   5.434E+00
   20.100   5.266E+00
   20.200   5.103E+00
   20.300   4.944E+00
   20.400   4.790E+00
   20.500   4.641E+00
   20.600   4.497E+00
   20.700   4.358E+00
   20.800   4.223E+00
   20.900   4.094E+00
   21.000   3.969E+00
   21.100   3.850E+00
   21.200   3.735E+00
   21.300   3.624E+00
   21.400   3.518E+00
   21.500   3.417E+00
   21.600   3.319E+00
   21.700   3.226E+00
   21.800   3.137E+00
   21.900   3.051E+00
   22.000   2.969E+00
   22.100   2.890E+00
   22.200   2.814E+00
   22.300   2.742E+00
   22.400   2.672E+00
   22.500   2.606E+00
   22.600   2.542E+00
   22.700   2.480E+00
   22.800   2.421E+00
   22.900   2.364E+00
   23.000   2.309E+00
   23.100   2.256E+00
   23.200   2.205E+00
   23.300   2.156E+00
   23.400   2.109E+00
   23.500   2.064E+00
   23.600   2.020E+00
   23.700   1.977E+00
   23.800   1.936E+00
   23.900   1.897E+00
   24.000   1.859E+00
   24.100   1.822E+00
   24.200   1.786E+00
   24.300   1.751E+00
   24.400   1.718E+00
   24.500   1.685E+00
   24.600   1.654E+00
   24.700   1.623E+00
   24.800   1.594E+00
   24.900   1.565E+00
   25.000   1.537E+00
   25.100   1.510E+00
   25.200   1.484E+00
   25.300   1.458E+00
   25.400   1.433E+00
   25.500   1.409E+00
   25.600   1.386E+00
   25.700   1.363E+00
   25.800   1.341E+00
   25.900   1.319E+00
   26.000   1.298E+00
   26.100   1.277E+00
   26.200   1.257E+00
   26.300   1.238E+00
   26.400   1.219E+00
   26.500   1.200E+00
   26.600   1.182E+00
   26.700   1.165E+00
   26.800   1.148E+00
   26.900   1.131E+00
   27.000   1.115E+00
   27.100   1.099E+00
   27.200   1.083E+00
   27.300   1.068E+00
   27.400   1.053E+00
   27.500   1.038E+00
   27.600   1.024E+00
   27.700   1.010E+00
   27.800   9.965E-01
   27.900   9.832E-01
   28.000   9.702E-01
   28.100   9.574E-01
   28.200   9.450E-01
   28.300   9.328E-01
   28.400   9.208E-01
   28.500   9.091E-01
   28.600   8.977E-01
   28.700   8.865E-01
   28.800   8.755E-01
   28.900   8.647E-01
   29.000   8.542E-01
   29.100   8.438E-01
   29.200   8.337E-01
   29.300   8.237E-01
   29.400   8.140E-01
   29.500   8.044E-01
   29.600   7.950E-01
   29.700   7.858E-01
   29.800   7.768E-01
   29.900   7.679E-01
   30.000   7.592E-01
 
 Z=  54 A= 138  D1M-QRPA
   E[MeV]   fQRPA[mb/MeV]
    0.100   9.042E-05
    0.200   3.618E-04
    0.300   8.145E-04
    0.400   1.449E-03
    0.500   2.266E-03
    0.600   3.267E-03
    0.700   4.453E-03
    0.800   5.826E-03
    0.900   7.387E-03
    1.000   9.139E-03
    1.100   1.108E-02
    1.200   1.322E-02
    1.300   1.556E-02
    1.400   1.810E-02
    1.500   2.084E-02
    1.600   2.380E-02
    1.700   2.696E-02
    1.800   3.034E-02
    1.900   3.394E-02
    2.000   3.777E-02
    2.100   4.184E-02
    2.200   4.613E-02
    2.300   5.068E-02
    2.400   5.547E-02
    2.500   6.052E-02
    2.600   6.584E-02
    2.700   7.143E-02
    2.800   7.730E-02
    2.900   8.346E-02
    3.000   8.993E-02
    3.100   9.670E-02
    3.200   1.038E-01
    3.300   1.112E-01
    3.400   1.190E-01
    3.500   1.271E-01
    3.600   1.356E-01
    3.700   1.445E-01
    3.800   1.538E-01
    3.900   1.636E-01
    4.000   1.737E-01
    4.100   1.844E-01
    4.200   1.954E-01
    4.300   2.070E-01
    4.400   2.192E-01
    4.500   2.318E-01
    4.600   2.451E-01
    4.700   2.589E-01
    4.800   2.734E-01
    4.900   2.885E-01
    5.000   3.043E-01
    5.100   3.209E-01
    5.200   3.382E-01
    5.300   3.563E-01
    5.400   3.753E-01
    5.500   3.951E-01
    5.600   4.158E-01
    5.700   4.376E-01
    5.800   4.603E-01
    5.900   4.841E-01
    6.000   5.090E-01
    6.100   5.351E-01
    6.200   5.623E-01
    6.300   5.908E-01
    6.400   6.206E-01
    6.500   6.517E-01
    6.600   6.842E-01
    6.700   7.181E-01
    6.800   7.534E-01
    6.900   7.902E-01
    7.000   8.284E-01
    7.100   8.681E-01
    7.200   9.094E-01
    7.300   9.521E-01
    7.400   9.964E-01
    7.500   1.042E+00
    7.600   1.090E+00
    7.700   1.139E+00
    7.800   1.189E+00
    7.900   1.241E+00
    8.000   1.295E+00
    8.100   1.351E+00
    8.200   1.409E+00
    8.300   1.468E+00
    8.400   1.530E+00
    8.500   1.594E+00
    8.600   1.660E+00
    8.700   1.728E+00
    8.800   1.799E+00
    8.900   1.873E+00
    9.000   1.949E+00
    9.100   2.028E+00
    9.200   2.111E+00
    9.300   2.196E+00
    9.400   2.284E+00
    9.500   2.376E+00
    9.600   2.471E+00
    9.700   2.569E+00
    9.800   2.671E+00
    9.900   2.777E+00
   10.000   2.888E+00
   10.100   3.002E+00
   10.200   3.120E+00
   10.300   3.243E+00
   10.400   3.371E+00
   10.500   3.504E+00
   10.600   3.642E+00
   10.700   3.786E+00
   10.800   3.935E+00
   10.900   4.091E+00
   11.000   4.253E+00
   11.100   4.422E+00
   11.200   4.599E+00
   11.300   4.783E+00
   11.400   4.976E+00
   11.500   5.178E+00
   11.600   5.390E+00
   11.700   5.612E+00
   11.800   5.845E+00
   11.900   6.090E+00
   12.000   6.347E+00
   12.100   6.618E+00
   12.200   6.903E+00
   12.300   7.204E+00
   12.400   7.520E+00
   12.500   7.854E+00
   12.600   8.207E+00
   12.700   8.579E+00
   12.800   8.971E+00
   12.900   9.384E+00
   13.000   9.818E+00
   13.100   1.028E+01
   13.200   1.075E+01
   13.300   1.126E+01
   13.400   1.178E+01
   13.500   1.232E+01
   13.600   1.289E+01
   13.700   1.346E+01
   13.800   1.406E+01
   13.900   1.466E+01
   14.000   1.527E+01
   14.100   1.587E+01
   14.200   1.647E+01
   14.300   1.706E+01
   14.400   1.762E+01
   14.500   1.815E+01
   14.600   1.865E+01
   14.700   1.910E+01
   14.800   1.949E+01
   14.900   1.982E+01
   15.000   2.009E+01
   15.100   2.028E+01
   15.200   2.040E+01
   15.300   2.044E+01
   15.400   2.041E+01
   15.500   2.030E+01
   15.600   2.012E+01
   15.700   1.988E+01
   15.800   1.958E+01
   15.900   1.922E+01
   16.000   1.882E+01
   16.100   1.838E+01
   16.200   1.792E+01
   16.300   1.743E+01
   16.400   1.693E+01
   16.500   1.642E+01
   16.600   1.591E+01
   16.700   1.540E+01
   16.800   1.490E+01
   16.900   1.441E+01
   17.000   1.394E+01
   17.100   1.347E+01
   17.200   1.303E+01
   17.300   1.260E+01
   17.400   1.219E+01
   17.500   1.180E+01
   17.600   1.143E+01
   17.700   1.108E+01
   17.800   1.074E+01
   17.900   1.041E+01
   18.000   1.010E+01
   18.100   9.804E+00
   18.200   9.519E+00
   18.300   9.245E+00
   18.400   8.982E+00
   18.500   8.728E+00
   18.600   8.483E+00
   18.700   8.245E+00
   18.800   8.015E+00
   18.900   7.792E+00
   19.000   7.575E+00
   19.100   7.364E+00
   19.200   7.160E+00
   19.300   6.960E+00
   19.400   6.765E+00
   19.500   6.576E+00
   19.600   6.391E+00
   19.700   6.211E+00
   19.800   6.035E+00
   19.900   5.863E+00
   20.000   5.695E+00
   20.100   5.532E+00
   20.200   5.372E+00
   20.300   5.217E+00
   20.400   5.066E+00
   20.500   4.919E+00
   20.600   4.776E+00
   20.700   4.637E+00
   20.800   4.503E+00
   20.900   4.373E+00
   21.000   4.247E+00
   21.100   4.125E+00
   21.200   4.008E+00
   21.300   3.895E+00
   21.400   3.786E+00
   21.500   3.681E+00
   21.600   3.580E+00
   21.700   3.482E+00
   21.800   3.389E+00
   21.900   3.299E+00
   22.000   3.213E+00
   22.100   3.130E+00
   22.200   3.050E+00
   22.300   2.973E+00
   22.400   2.899E+00
   22.500   2.828E+00
   22.600   2.760E+00
   22.700   2.694E+00
   22.800   2.631E+00
   22.900   2.570E+00
   23.000   2.511E+00
   23.100   2.455E+00
   23.200   2.400E+00
   23.300   2.348E+00
   23.400   2.297E+00
   23.500   2.248E+00
   23.600   2.201E+00
   23.700   2.155E+00
   23.800   2.111E+00
   23.900   2.069E+00
   24.000   2.027E+00
   24.100   1.987E+00
   24.200   1.949E+00
   24.300   1.911E+00
   24.400   1.875E+00
   24.500   1.840E+00
   24.600   1.806E+00
   24.700   1.773E+00
   24.800   1.741E+00
   24.900   1.710E+00
   25.000   1.679E+00
   25.100   1.650E+00
   25.200   1.621E+00
   25.300   1.594E+00
   25.400   1.567E+00
   25.500   1.541E+00
   25.600   1.515E+00
   25.700   1.490E+00
   25.800   1.466E+00
   25.900   1.443E+00
   26.000   1.420E+00
   26.100   1.398E+00
   26.200   1.376E+00
   26.300   1.355E+00
   26.400   1.334E+00
   26.500   1.314E+00
   26.600   1.294E+00
   26.700   1.275E+00
   26.800   1.256E+00
   26.900   1.238E+00
   27.000   1.220E+00
   27.100   1.203E+00
   27.200   1.186E+00
   27.300   1.169E+00
   27.400   1.153E+00
   27.500   1.137E+00
   27.600   1.122E+00
   27.700   1.107E+00
   27.800   1.092E+00
   27.900   1.077E+00
   28.000   1.063E+00
   28.100   1.049E+00
   28.200   1.036E+00
   28.300   1.023E+00
   28.400   1.009E+00
   28.500   9.967E-01
   28.600   9.842E-01
   28.700   9.720E-01
   28.800   9.600E-01
   28.900   9.483E-01
   29.000   9.368E-01
   29.100   9.255E-01
   29.200   9.144E-01
   29.300   9.036E-01
   29.400   8.929E-01
   29.500   8.825E-01
   29.600   8.722E-01
   29.700   8.622E-01
   29.800   8.523E-01
   29.900   8.426E-01
   30.000   8.331E-01
 
 Z=  54 A= 139  D1M-QRPA-Inter
 E[MeV]  fQRPA[mb/MeV]
    0.100   1.147E-04
    0.200   4.590E-04
    0.300   1.033E-03
    0.400   1.839E-03
    0.500   2.876E-03
    0.600   4.146E-03
    0.700   5.651E-03
    0.800   7.393E-03
    0.900   9.374E-03
    1.000   1.160E-02
    1.100   1.407E-02
    1.200   1.678E-02
    1.300   1.975E-02
    1.400   2.297E-02
    1.500   2.645E-02
    1.600   3.020E-02
    1.700   3.421E-02
    1.800   3.851E-02
    1.900   4.308E-02
    2.000   4.793E-02
    2.100   5.308E-02
    2.200   5.853E-02
    2.300   6.429E-02
    2.400   7.037E-02
    2.500   7.676E-02
    2.600   8.349E-02
    2.700   9.057E-02
    2.800   9.799E-02
    2.900   1.058E-01
    3.000   1.139E-01
    3.100   1.225E-01
    3.200   1.314E-01
    3.300   1.408E-01
    3.400   1.506E-01
    3.500   1.608E-01
    3.600   1.715E-01
    3.700   1.827E-01
    3.800   1.944E-01
    3.900   2.066E-01
    4.000   2.193E-01
    4.100   2.326E-01
    4.200   2.464E-01
    4.300   2.609E-01
    4.400   2.760E-01
    4.500   2.917E-01
    4.600   3.082E-01
    4.700   3.254E-01
    4.800   3.433E-01
    4.900   3.620E-01
    5.000   3.815E-01
    5.100   4.019E-01
    5.200   4.232E-01
    5.300   4.455E-01
    5.400   4.687E-01
    5.500   4.930E-01
    5.600   5.184E-01
    5.700   5.450E-01
    5.800   5.727E-01
    5.900   6.017E-01
    6.000   6.320E-01
    6.100   6.637E-01
    6.200   6.967E-01
    6.300   7.313E-01
    6.400   7.674E-01
    6.500   8.051E-01
    6.600   8.445E-01
    6.700   8.855E-01
    6.800   9.283E-01
    6.900   9.729E-01
    7.000   1.019E+00
    7.100   1.068E+00
    7.200   1.118E+00
    7.300   1.170E+00
    7.400   1.224E+00
    7.500   1.280E+00
    7.600   1.339E+00
    7.700   1.399E+00
    7.800   1.462E+00
    7.900   1.527E+00
    8.000   1.594E+00
    8.100   1.664E+00
    8.200   1.736E+00
    8.300   1.811E+00
    8.400   1.889E+00
    8.500   1.969E+00
    8.600   2.053E+00
    8.700   2.141E+00
    8.800   2.231E+00
    8.900   2.325E+00
    9.000   2.424E+00
    9.100   2.526E+00
    9.200   2.632E+00
    9.300   2.743E+00
    9.400   2.858E+00
    9.500   2.978E+00
    9.600   3.103E+00
    9.700   3.234E+00
    9.800   3.370E+00
    9.900   3.511E+00
   10.000   3.659E+00
   10.100   3.813E+00
   10.200   3.973E+00
   10.300   4.140E+00
   10.400   4.314E+00
   10.500   4.496E+00
   10.600   4.686E+00
   10.700   4.884E+00
   10.800   5.090E+00
   10.900   5.306E+00
   11.000   5.531E+00
   11.100   5.766E+00
   11.200   6.011E+00
   11.300   6.268E+00
   11.400   6.535E+00
   11.500   6.815E+00
   11.600   7.108E+00
   11.700   7.413E+00
   11.800   7.733E+00
   11.900   8.066E+00
   12.000   8.414E+00
   12.100   8.776E+00
   12.200   9.154E+00
   12.300   9.547E+00
   12.400   9.955E+00
   12.500   1.038E+01
   12.600   1.082E+01
   12.700   1.127E+01
   12.800   1.174E+01
   12.900   1.222E+01
   13.000   1.271E+01
   13.100   1.321E+01
   13.200   1.372E+01
   13.300   1.423E+01
   13.400   1.475E+01
   13.500   1.526E+01
   13.600   1.577E+01
   13.700   1.627E+01
   13.800   1.676E+01
   13.900   1.723E+01
   14.000   1.768E+01
   14.100   1.810E+01
   14.200   1.849E+01
   14.300   1.884E+01
   14.400   1.915E+01
   14.500   1.941E+01
   14.600   1.962E+01
   14.700   1.978E+01
   14.800   1.988E+01
   14.900   1.993E+01
   15.000   1.991E+01
   15.100   1.984E+01
   15.200   1.971E+01
   15.300   1.953E+01
   15.400   1.929E+01
   15.500   1.901E+01
   15.600   1.868E+01
   15.700   1.831E+01
   15.800   1.791E+01
   15.900   1.749E+01
   16.000   1.704E+01
   16.100   1.658E+01
   16.200   1.610E+01
   16.300   1.562E+01
   16.400   1.514E+01
   16.500   1.466E+01
   16.600   1.418E+01
   16.700   1.372E+01
   16.800   1.326E+01
   16.900   1.281E+01
   17.000   1.238E+01
   17.100   1.197E+01
   17.200   1.156E+01
   17.300   1.118E+01
   17.400   1.081E+01
   17.500   1.045E+01
   17.600   1.011E+01
   17.700   9.788E+00
   17.800   9.478E+00
   17.900   9.180E+00
   18.000   8.896E+00
   18.100   8.624E+00
   18.200   8.363E+00
   18.300   8.112E+00
   18.400   7.872E+00
   18.500   7.641E+00
   18.600   7.419E+00
   18.700   7.205E+00
   18.800   6.999E+00
   18.900   6.800E+00
   19.000   6.608E+00
   19.100   6.423E+00
   19.200   6.244E+00
   19.300   6.072E+00
   19.400   5.905E+00
   19.500   5.743E+00
   19.600   5.586E+00
   19.700   5.435E+00
   19.800   5.288E+00
   19.900   5.145E+00
   20.000   5.007E+00
   20.100   4.873E+00
   20.200   4.743E+00
   20.300   4.618E+00
   20.400   4.496E+00
   20.500   4.377E+00
   20.600   4.263E+00
   20.700   4.152E+00
   20.800   4.045E+00
   20.900   3.941E+00
   21.000   3.841E+00
   21.100   3.744E+00
   21.200   3.650E+00
   21.300   3.560E+00
   21.400   3.472E+00
   21.500   3.388E+00
   21.600   3.306E+00
   21.700   3.228E+00
   21.800   3.152E+00
   21.900   3.079E+00
   22.000   3.008E+00
   22.100   2.940E+00
   22.200   2.874E+00
   22.300   2.811E+00
   22.400   2.749E+00
   22.500   2.690E+00
   22.600   2.633E+00
   22.700   2.578E+00
   22.800   2.524E+00
   22.900   2.472E+00
   23.000   2.422E+00
   23.100   2.374E+00
   23.200   2.327E+00
   23.300   2.282E+00
   23.400   2.238E+00
   23.500   2.195E+00
   23.600   2.154E+00
   23.700   2.114E+00
   23.800   2.075E+00
   23.900   2.037E+00
   24.000   2.000E+00
   24.100   1.965E+00
   24.200   1.930E+00
   24.300   1.897E+00
   24.400   1.864E+00
   24.500   1.832E+00
   24.600   1.802E+00
   24.700   1.772E+00
   24.800   1.742E+00
   24.900   1.714E+00
   25.000   1.686E+00
   25.100   1.659E+00
   25.200   1.633E+00
   25.300   1.608E+00
   25.400   1.583E+00
   25.500   1.558E+00
   25.600   1.535E+00
   25.700   1.512E+00
   25.800   1.489E+00
   25.900   1.467E+00
   26.000   1.446E+00
   26.100   1.425E+00
   26.200   1.404E+00
   26.300   1.384E+00
   26.400   1.365E+00
   26.500   1.346E+00
   26.600   1.327E+00
   26.700   1.309E+00
   26.800   1.291E+00
   26.900   1.273E+00
   27.000   1.256E+00
   27.100   1.240E+00
   27.200   1.223E+00
   27.300   1.207E+00
   27.400   1.192E+00
   27.500   1.176E+00
   27.600   1.161E+00
   27.700   1.147E+00
   27.800   1.132E+00
   27.900   1.118E+00
   28.000   1.104E+00
   28.100   1.091E+00
   28.200   1.078E+00
   28.300   1.065E+00
   28.400   1.052E+00
   28.500   1.039E+00
   28.600   1.027E+00
   28.700   1.015E+00
   28.800   1.003E+00
   28.900   9.917E-01
   29.000   9.803E-01
   29.100   9.692E-01
   29.200   9.582E-01
   29.300   9.475E-01
   29.400   9.369E-01
   29.500   9.265E-01
   29.600   9.163E-01
   29.700   9.063E-01
   29.800   8.965E-01
   29.900   8.868E-01
   30.000   8.774E-01
 
 Z=  54 A= 140  D1M-QRPA
   E[MeV]   fQRPA[mb/MeV]
    0.100   1.430E-04
    0.200   5.722E-04
    0.300   1.288E-03
    0.400   2.292E-03
    0.500   3.585E-03
    0.600   5.168E-03
    0.700   7.045E-03
    0.800   9.217E-03
    0.900   1.169E-02
    1.000   1.446E-02
    1.100   1.754E-02
    1.200   2.092E-02
    1.300   2.462E-02
    1.400   2.864E-02
    1.500   3.298E-02
    1.600   3.765E-02
    1.700   4.266E-02
    1.800   4.801E-02
    1.900   5.371E-02
    2.000   5.976E-02
    2.100   6.618E-02
    2.200   7.296E-02
    2.300   8.013E-02
    2.400   8.769E-02
    2.500   9.565E-02
    2.600   1.040E-01
    2.700   1.128E-01
    2.800   1.220E-01
    2.900   1.317E-01
    3.000   1.418E-01
    3.100   1.525E-01
    3.200   1.635E-01
    3.300   1.751E-01
    3.400   1.873E-01
    3.500   1.999E-01
    3.600   2.131E-01
    3.700   2.269E-01
    3.800   2.413E-01
    3.900   2.563E-01
    4.000   2.720E-01
    4.100   2.883E-01
    4.200   3.053E-01
    4.300   3.230E-01
    4.400   3.415E-01
    4.500   3.607E-01
    4.600   3.808E-01
    4.700   4.017E-01
    4.800   4.235E-01
    4.900   4.462E-01
    5.000   4.699E-01
    5.100   4.946E-01
    5.200   5.204E-01
    5.300   5.472E-01
    5.400   5.753E-01
    5.500   6.045E-01
    5.600   6.350E-01
    5.700   6.668E-01
    5.800   7.001E-01
    5.900   7.347E-01
    6.000   7.709E-01
    6.100   8.087E-01
    6.200   8.482E-01
    6.300   8.893E-01
    6.400   9.323E-01
    6.500   9.772E-01
    6.600   1.024E+00
    6.700   1.073E+00
    6.800   1.124E+00
    6.900   1.177E+00
    7.000   1.232E+00
    7.100   1.290E+00
    7.200   1.350E+00
    7.300   1.412E+00
    7.400   1.478E+00
    7.500   1.545E+00
    7.600   1.616E+00
    7.700   1.689E+00
    7.800   1.765E+00
    7.900   1.844E+00
    8.000   1.927E+00
    8.100   2.012E+00
    8.200   2.101E+00
    8.300   2.194E+00
    8.400   2.290E+00
    8.500   2.391E+00
    8.600   2.495E+00
    8.700   2.604E+00
    8.800   2.718E+00
    8.900   2.837E+00
    9.000   2.960E+00
    9.100   3.090E+00
    9.200   3.225E+00
    9.300   3.366E+00
    9.400   3.514E+00
    9.500   3.668E+00
    9.600   3.830E+00
    9.700   3.999E+00
    9.800   4.176E+00
    9.900   4.361E+00
   10.000   4.555E+00
   10.100   4.758E+00
   10.200   4.970E+00
   10.300   5.192E+00
   10.400   5.425E+00
   10.500   5.668E+00
   10.600   5.923E+00
   10.700   6.190E+00
   10.800   6.469E+00
   10.900   6.761E+00
   11.000   7.066E+00
   11.100   7.385E+00
   11.200   7.719E+00
   11.300   8.068E+00
   11.400   8.432E+00
   11.500   8.812E+00
   11.600   9.209E+00
   11.700   9.621E+00
   11.800   1.005E+01
   11.900   1.050E+01
   12.000   1.096E+01
   12.100   1.143E+01
   12.200   1.193E+01
   12.300   1.243E+01
   12.400   1.295E+01
   12.500   1.347E+01
   12.600   1.401E+01
   12.700   1.455E+01
   12.800   1.509E+01
   12.900   1.563E+01
   13.000   1.616E+01
   13.100   1.669E+01
   13.200   1.719E+01
   13.300   1.768E+01
   13.400   1.814E+01
   13.500   1.857E+01
   13.600   1.897E+01
   13.700   1.932E+01
   13.800   1.964E+01
   13.900   1.990E+01
   14.000   2.012E+01
   14.100   2.028E+01
   14.200   2.039E+01
   14.300   2.044E+01
   14.400   2.045E+01
   14.500   2.039E+01
   14.600   2.029E+01
   14.700   2.013E+01
   14.800   1.993E+01
   14.900   1.968E+01
   15.000   1.939E+01
   15.100   1.907E+01
   15.200   1.871E+01
   15.300   1.832E+01
   15.400   1.791E+01
   15.500   1.748E+01
   15.600   1.703E+01
   15.700   1.658E+01
   15.800   1.611E+01
   15.900   1.564E+01
   16.000   1.516E+01
   16.100   1.469E+01
   16.200   1.422E+01
   16.300   1.376E+01
   16.400   1.330E+01
   16.500   1.286E+01
   16.600   1.242E+01
   16.700   1.200E+01
   16.800   1.159E+01
   16.900   1.119E+01
   17.000   1.081E+01
   17.100   1.044E+01
   17.200   1.008E+01
   17.300   9.740E+00
   17.400   9.410E+00
   17.500   9.094E+00
   17.600   8.790E+00
   17.700   8.499E+00
   17.800   8.221E+00
   17.900   7.953E+00
   18.000   7.698E+00
   18.100   7.452E+00
   18.200   7.218E+00
   18.300   6.993E+00
   18.400   6.778E+00
   18.500   6.572E+00
   18.600   6.374E+00
   18.700   6.185E+00
   18.800   6.004E+00
   18.900   5.830E+00
   19.000   5.664E+00
   19.100   5.504E+00
   19.200   5.351E+00
   19.300   5.204E+00
   19.400   5.063E+00
   19.500   4.927E+00
   19.600   4.797E+00
   19.700   4.672E+00
   19.800   4.552E+00
   19.900   4.436E+00
   20.000   4.325E+00
   20.100   4.218E+00
   20.200   4.115E+00
   20.300   4.015E+00
   20.400   3.920E+00
   20.500   3.827E+00
   20.600   3.738E+00
   20.700   3.653E+00
   20.800   3.570E+00
   20.900   3.490E+00
   21.000   3.413E+00
   21.100   3.338E+00
   21.200   3.266E+00
   21.300   3.196E+00
   21.400   3.129E+00
   21.500   3.064E+00
   21.600   3.001E+00
   21.700   2.940E+00
   21.800   2.880E+00
   21.900   2.823E+00
   22.000   2.768E+00
   22.100   2.714E+00
   22.200   2.661E+00
   22.300   2.611E+00
   22.400   2.562E+00
   22.500   2.514E+00
   22.600   2.468E+00
   22.700   2.423E+00
   22.800   2.379E+00
   22.900   2.337E+00
   23.000   2.295E+00
   23.100   2.255E+00
   23.200   2.216E+00
   23.300   2.178E+00
   23.400   2.141E+00
   23.500   2.105E+00
   23.600   2.070E+00
   23.700   2.036E+00
   23.800   2.003E+00
   23.900   1.971E+00
   24.000   1.939E+00
   24.100   1.909E+00
   24.200   1.879E+00
   24.300   1.849E+00
   24.400   1.821E+00
   24.500   1.793E+00
   24.600   1.766E+00
   24.700   1.740E+00
   24.800   1.714E+00
   24.900   1.689E+00
   25.000   1.664E+00
   25.100   1.640E+00
   25.200   1.616E+00
   25.300   1.593E+00
   25.400   1.571E+00
   25.500   1.549E+00
   25.600   1.527E+00
   25.700   1.506E+00
   25.800   1.486E+00
   25.900   1.466E+00
   26.000   1.446E+00
   26.100   1.427E+00
   26.200   1.408E+00
   26.300   1.390E+00
   26.400   1.372E+00
   26.500   1.354E+00
   26.600   1.337E+00
   26.700   1.320E+00
   26.800   1.303E+00
   26.900   1.287E+00
   27.000   1.271E+00
   27.100   1.255E+00
   27.200   1.240E+00
   27.300   1.225E+00
   27.400   1.210E+00
   27.500   1.195E+00
   27.600   1.181E+00
   27.700   1.167E+00
   27.800   1.154E+00
   27.900   1.140E+00
   28.000   1.127E+00
   28.100   1.114E+00
   28.200   1.102E+00
   28.300   1.089E+00
   28.400   1.077E+00
   28.500   1.065E+00
   28.600   1.053E+00
   28.700   1.041E+00
   28.800   1.030E+00
   28.900   1.019E+00
   29.000   1.008E+00
   29.100   9.971E-01
   29.200   9.865E-01
   29.300   9.761E-01
   29.400   9.658E-01
   29.500   9.557E-01
   29.600   9.458E-01
   29.700   9.360E-01
   29.800   9.264E-01
   29.900   9.170E-01
   30.000   9.077E-01
 
 Z=  54 A= 141  D1M-QRPA-Inter
 E[MeV]  fQRPA[mb/MeV]
    0.100   1.621E-04
    0.200   6.486E-04
    0.300   1.460E-03
    0.400   2.598E-03
    0.500   4.063E-03
    0.600   5.856E-03
    0.700   7.982E-03
    0.800   1.044E-02
    0.900   1.324E-02
    1.000   1.637E-02
    1.100   1.985E-02
    1.200   2.368E-02
    1.300   2.785E-02
    1.400   3.239E-02
    1.500   3.728E-02
    1.600   4.254E-02
    1.700   4.818E-02
    1.800   5.419E-02
    1.900   6.059E-02
    2.000   6.738E-02
    2.100   7.457E-02
    2.200   8.217E-02
    2.300   9.019E-02
    2.400   9.864E-02
    2.500   1.075E-01
    2.600   1.169E-01
    2.700   1.267E-01
    2.800   1.369E-01
    2.900   1.477E-01
    3.000   1.590E-01
    3.100   1.708E-01
    3.200   1.831E-01
    3.300   1.960E-01
    3.400   2.095E-01
    3.500   2.235E-01
    3.600   2.382E-01
    3.700   2.536E-01
    3.800   2.696E-01
    3.900   2.863E-01
    4.000   3.037E-01
    4.100   3.219E-01
    4.200   3.408E-01
    4.300   3.606E-01
    4.400   3.813E-01
    4.500   4.028E-01
    4.600   4.252E-01
    4.700   4.486E-01
    4.800   4.731E-01
    4.900   4.986E-01
    5.000   5.251E-01
    5.100   5.529E-01
    5.200   5.818E-01
    5.300   6.120E-01
    5.400   6.435E-01
    5.500   6.764E-01
    5.600   7.108E-01
    5.700   7.466E-01
    5.800   7.840E-01
    5.900   8.230E-01
    6.000   8.638E-01
    6.100   9.063E-01
    6.200   9.506E-01
    6.300   9.969E-01
    6.400   1.045E+00
    6.500   1.095E+00
    6.600   1.148E+00
    6.700   1.203E+00
    6.800   1.260E+00
    6.900   1.319E+00
    7.000   1.381E+00
    7.100   1.445E+00
    7.200   1.512E+00
    7.300   1.581E+00
    7.400   1.654E+00
    7.500   1.729E+00
    7.600   1.807E+00
    7.700   1.888E+00
    7.800   1.972E+00
    7.900   2.060E+00
    8.000   2.151E+00
    8.100   2.246E+00
    8.200   2.344E+00
    8.300   2.447E+00
    8.400   2.553E+00
    8.500   2.664E+00
    8.600   2.780E+00
    8.700   2.901E+00
    8.800   3.026E+00
    8.900   3.157E+00
    9.000   3.294E+00
    9.100   3.437E+00
    9.200   3.587E+00
    9.300   3.743E+00
    9.400   3.906E+00
    9.500   4.077E+00
    9.600   4.256E+00
    9.700   4.443E+00
    9.800   4.639E+00
    9.900   4.843E+00
   10.000   5.058E+00
   10.100   5.282E+00
   10.200   5.516E+00
   10.300   5.762E+00
   10.400   6.018E+00
   10.500   6.287E+00
   10.600   6.568E+00
   10.700   6.861E+00
   10.800   7.168E+00
   10.900   7.489E+00
   11.000   7.824E+00
   11.100   8.174E+00
   11.200   8.539E+00
   11.300   8.919E+00
   11.400   9.316E+00
   11.500   9.728E+00
   11.600   1.016E+01
   11.700   1.060E+01
   11.800   1.106E+01
   11.900   1.153E+01
   12.000   1.202E+01
   12.100   1.252E+01
   12.200   1.304E+01
   12.300   1.356E+01
   12.400   1.409E+01
   12.500   1.462E+01
   12.600   1.516E+01
   12.700   1.569E+01
   12.800   1.622E+01
   12.900   1.674E+01
   13.000   1.724E+01
   13.100   1.773E+01
   13.200   1.819E+01
   13.300   1.862E+01
   13.400   1.902E+01
   13.500   1.938E+01
   13.600   1.969E+01
   13.700   1.996E+01
   13.800   2.018E+01
   13.900   2.035E+01
   14.000   2.047E+01
   14.100   2.053E+01
   14.200   2.054E+01
   14.300   2.049E+01
   14.400   2.039E+01
   14.500   2.024E+01
   14.600   2.004E+01
   14.700   1.980E+01
   14.800   1.951E+01
   14.900   1.919E+01
   15.000   1.884E+01
   15.100   1.846E+01
   15.200   1.805E+01
   15.300   1.763E+01
   15.400   1.719E+01
   15.500   1.673E+01
   15.600   1.627E+01
   15.700   1.581E+01
   15.800   1.534E+01
   15.900   1.487E+01
   16.000   1.441E+01
   16.100   1.395E+01
   16.200   1.350E+01
   16.300   1.306E+01
   16.400   1.263E+01
   16.500   1.221E+01
   16.600   1.180E+01
   16.700   1.140E+01
   16.800   1.102E+01
   16.900   1.065E+01
   17.000   1.030E+01
   17.100   9.954E+00
   17.200   9.624E+00
   17.300   9.307E+00
   17.400   9.002E+00
   17.500   8.710E+00
   17.600   8.429E+00
   17.700   8.160E+00
   17.800   7.902E+00
   17.900   7.655E+00
   18.000   7.418E+00
   18.100   7.191E+00
   18.200   6.973E+00
   18.300   6.764E+00
   18.400   6.564E+00
   18.500   6.372E+00
   18.600   6.188E+00
   18.700   6.012E+00
   18.800   5.843E+00
   18.900   5.680E+00
   19.000   5.524E+00
   19.100   5.374E+00
   19.200   5.230E+00
   19.300   5.092E+00
   19.400   4.959E+00
   19.500   4.831E+00
   19.600   4.708E+00
   19.700   4.590E+00
   19.800   4.476E+00
   19.900   4.367E+00
   20.000   4.261E+00
   20.100   4.159E+00
   20.200   4.061E+00
   20.300   3.966E+00
   20.400   3.875E+00
   20.500   3.787E+00
   20.600   3.702E+00
   20.700   3.620E+00
   20.800   3.540E+00
   20.900   3.464E+00
   21.000   3.390E+00
   21.100   3.318E+00
   21.200   3.249E+00
   21.300   3.181E+00
   21.400   3.116E+00
   21.500   3.053E+00
   21.600   2.993E+00
   21.700   2.933E+00
   21.800   2.876E+00
   21.900   2.821E+00
   22.000   2.767E+00
   22.100   2.714E+00
   22.200   2.664E+00
   22.300   2.615E+00
   22.400   2.567E+00
   22.500   2.520E+00
   22.600   2.475E+00
   22.700   2.431E+00
   22.800   2.389E+00
   22.900   2.347E+00
   23.000   2.307E+00
   23.100   2.267E+00
   23.200   2.229E+00
   23.300   2.192E+00
   23.400   2.156E+00
   23.500   2.121E+00
   23.600   2.086E+00
   23.700   2.053E+00
   23.800   2.020E+00
   23.900   1.988E+00
   24.000   1.957E+00
   24.100   1.927E+00
   24.200   1.897E+00
   24.300   1.869E+00
   24.400   1.840E+00
   24.500   1.813E+00
   24.600   1.786E+00
   24.700   1.760E+00
   24.800   1.734E+00
   24.900   1.710E+00
   25.000   1.685E+00
   25.100   1.661E+00
   25.200   1.638E+00
   25.300   1.615E+00
   25.400   1.593E+00
   25.500   1.571E+00
   25.600   1.550E+00
   25.700   1.529E+00
   25.800   1.508E+00
   25.900   1.488E+00
   26.000   1.469E+00
   26.100   1.450E+00
   26.200   1.431E+00
   26.300   1.413E+00
   26.400   1.395E+00
   26.500   1.377E+00
   26.600   1.360E+00
   26.700   1.343E+00
   26.800   1.326E+00
   26.900   1.310E+00
   27.000   1.294E+00
   27.100   1.278E+00
   27.200   1.263E+00
   27.300   1.248E+00
   27.400   1.233E+00
   27.500   1.219E+00
   27.600   1.204E+00
   27.700   1.190E+00
   27.800   1.177E+00
   27.900   1.163E+00
   28.000   1.150E+00
   28.100   1.137E+00
   28.200   1.124E+00
   28.300   1.112E+00
   28.400   1.100E+00
   28.500   1.088E+00
   28.600   1.076E+00
   28.700   1.064E+00
   28.800   1.053E+00
   28.900   1.041E+00
   29.000   1.030E+00
   29.100   1.019E+00
   29.200   1.009E+00
   29.300   9.982E-01
   29.400   9.879E-01
   29.500   9.777E-01
   29.600   9.677E-01
   29.700   9.579E-01
   29.800   9.482E-01
   29.900   9.387E-01
   30.000   9.293E-01
 
 Z=  54 A= 142  D1M-QRPA
   E[MeV]   fQRPA[mb/MeV]
    0.100   1.833E-04
    0.200   7.335E-04
    0.300   1.651E-03
    0.400   2.937E-03
    0.500   4.593E-03
    0.600   6.621E-03
    0.700   9.022E-03
    0.800   1.180E-02
    0.900   1.496E-02
    1.000   1.849E-02
    1.100   2.242E-02
    1.200   2.673E-02
    1.300   3.143E-02
    1.400   3.654E-02
    1.500   4.204E-02
    1.600   4.795E-02
    1.700   5.428E-02
    1.800   6.102E-02
    1.900   6.819E-02
    2.000   7.579E-02
    2.100   8.383E-02
    2.200   9.232E-02
    2.300   1.013E-01
    2.400   1.107E-01
    2.500   1.206E-01
    2.600   1.310E-01
    2.700   1.419E-01
    2.800   1.533E-01
    2.900   1.653E-01
    3.000   1.778E-01
    3.100   1.909E-01
    3.200   2.045E-01
    3.300   2.188E-01
    3.400   2.338E-01
    3.500   2.494E-01
    3.600   2.657E-01
    3.700   2.827E-01
    3.800   3.005E-01
    3.900   3.190E-01
    4.000   3.384E-01
    4.100   3.586E-01
    4.200   3.797E-01
    4.300   4.017E-01
    4.400   4.247E-01
    4.500   4.487E-01
    4.600   4.738E-01
    4.700   4.999E-01
    4.800   5.272E-01
    4.900   5.558E-01
    5.000   5.855E-01
    5.100   6.166E-01
    5.200   6.490E-01
    5.300   6.829E-01
    5.400   7.183E-01
    5.500   7.552E-01
    5.600   7.938E-01
    5.700   8.340E-01
    5.800   8.760E-01
    5.900   9.198E-01
    6.000   9.655E-01
    6.100   1.013E+00
    6.200   1.063E+00
    6.300   1.115E+00
    6.400   1.169E+00
    6.500   1.225E+00
    6.600   1.284E+00
    6.700   1.345E+00
    6.800   1.409E+00
    6.900   1.475E+00
    7.000   1.544E+00
    7.100   1.615E+00
    7.200   1.689E+00
    7.300   1.766E+00
    7.400   1.847E+00
    7.500   1.930E+00
    7.600   2.016E+00
    7.700   2.106E+00
    7.800   2.199E+00
    7.900   2.296E+00
    8.000   2.396E+00
    8.100   2.501E+00
    8.200   2.609E+00
    8.300   2.722E+00
    8.400   2.840E+00
    8.500   2.962E+00
    8.600   3.090E+00
    8.700   3.223E+00
    8.800   3.362E+00
    8.900   3.506E+00
    9.000   3.657E+00
    9.100   3.815E+00
    9.200   3.980E+00
    9.300   4.153E+00
    9.400   4.333E+00
    9.500   4.521E+00
    9.600   4.719E+00
    9.700   4.925E+00
    9.800   5.141E+00
    9.900   5.367E+00
   10.000   5.603E+00
   10.100   5.850E+00
   10.200   6.108E+00
   10.300   6.379E+00
   10.400   6.661E+00
   10.500   6.957E+00
   10.600   7.266E+00
   10.700   7.588E+00
   10.800   7.925E+00
   10.900   8.277E+00
   11.000   8.644E+00
   11.100   9.026E+00
   11.200   9.424E+00
   11.300   9.838E+00
   11.400   1.027E+01
   11.500   1.071E+01
   11.600   1.117E+01
   11.700   1.165E+01
   11.800   1.214E+01
   11.900   1.264E+01
   12.000   1.316E+01
   12.100   1.368E+01
   12.200   1.422E+01
   12.300   1.475E+01
   12.400   1.529E+01
   12.500   1.583E+01
   12.600   1.636E+01
   12.700   1.689E+01
   12.800   1.740E+01
   12.900   1.789E+01
   13.000   1.836E+01
   13.100   1.880E+01
   13.200   1.920E+01
   13.300   1.957E+01
   13.400   1.989E+01
   13.500   2.017E+01
   13.600   2.040E+01
   13.700   2.058E+01
   13.800   2.070E+01
   13.900   2.077E+01
   14.000   2.078E+01
   14.100   2.073E+01
   14.200   2.064E+01
   14.300   2.048E+01
   14.400   2.028E+01
   14.500   2.004E+01
   14.600   1.975E+01
   14.700   1.942E+01
   14.800   1.906E+01
   14.900   1.868E+01
   15.000   1.826E+01
   15.100   1.783E+01
   15.200   1.738E+01
   15.300   1.692E+01
   15.400   1.645E+01
   15.500   1.598E+01
   15.600   1.551E+01
   15.700   1.504E+01
   15.800   1.457E+01
   15.900   1.411E+01
   16.000   1.366E+01
   16.100   1.322E+01
   16.200   1.279E+01
   16.300   1.237E+01
   16.400   1.196E+01
   16.500   1.156E+01
   16.600   1.118E+01
   16.700   1.081E+01
   16.800   1.046E+01
   16.900   1.012E+01
   17.000   9.786E+00
   17.100   9.470E+00
   17.200   9.165E+00
   17.300   8.873E+00
   17.400   8.592E+00
   17.500   8.323E+00
   17.600   8.064E+00
   17.700   7.817E+00
   17.800   7.579E+00
   17.900   7.351E+00
   18.000   7.132E+00
   18.100   6.922E+00
   18.200   6.721E+00
   18.300   6.528E+00
   18.400   6.343E+00
   18.500   6.165E+00
   18.600   5.994E+00
   18.700   5.830E+00
   18.800   5.672E+00
   18.900   5.521E+00
   19.000   5.375E+00
   19.100   5.235E+00
   19.200   5.101E+00
   19.300   4.971E+00
   19.400   4.846E+00
   19.500   4.726E+00
   19.600   4.611E+00
   19.700   4.499E+00
   19.800   4.392E+00
   19.900   4.288E+00
   20.000   4.188E+00
   20.100   4.092E+00
   20.200   3.999E+00
   20.300   3.909E+00
   20.400   3.822E+00
   20.500   3.738E+00
   20.600   3.657E+00
   20.700   3.579E+00
   20.800   3.503E+00
   20.900   3.430E+00
   21.000   3.359E+00
   21.100   3.290E+00
   21.200   3.224E+00
   21.300   3.159E+00
   21.400   3.097E+00
   21.500   3.036E+00
   21.600   2.978E+00
   21.700   2.921E+00
   21.800   2.865E+00
   21.900   2.812E+00
   22.000   2.760E+00
   22.100   2.709E+00
   22.200   2.660E+00
   22.300   2.612E+00
   22.400   2.566E+00
   22.500   2.521E+00
   22.600   2.477E+00
   22.700   2.434E+00
   22.800   2.393E+00
   22.900   2.352E+00
   23.000   2.313E+00
   23.100   2.274E+00
   23.200   2.237E+00
   23.300   2.201E+00
   23.400   2.165E+00
   23.500   2.131E+00
   23.600   2.097E+00
   23.700   2.064E+00
   23.800   2.032E+00
   23.900   2.001E+00
   24.000   1.971E+00
   24.100   1.941E+00
   24.200   1.912E+00
   24.300   1.884E+00
   24.400   1.856E+00
   24.500   1.829E+00
   24.600   1.802E+00
   24.700   1.777E+00
   24.800   1.751E+00
   24.900   1.727E+00
   25.000   1.703E+00
   25.100   1.679E+00
   25.200   1.656E+00
   25.300   1.633E+00
   25.400   1.611E+00
   25.500   1.590E+00
   25.600   1.569E+00
   25.700   1.548E+00
   25.800   1.528E+00
   25.900   1.508E+00
   26.000   1.488E+00
   26.100   1.469E+00
   26.200   1.451E+00
   26.300   1.433E+00
   26.400   1.415E+00
   26.500   1.397E+00
   26.600   1.380E+00
   26.700   1.363E+00
   26.800   1.347E+00
   26.900   1.330E+00
   27.000   1.314E+00
   27.100   1.299E+00
   27.200   1.283E+00
   27.300   1.268E+00
   27.400   1.254E+00
   27.500   1.239E+00
   27.600   1.225E+00
   27.700   1.211E+00
   27.800   1.197E+00
   27.900   1.184E+00
   28.000   1.171E+00
   28.100   1.158E+00
   28.200   1.145E+00
   28.300   1.133E+00
   28.400   1.120E+00
   28.500   1.108E+00
   28.600   1.096E+00
   28.700   1.085E+00
   28.800   1.073E+00
   28.900   1.062E+00
   29.000   1.051E+00
   29.100   1.040E+00
   29.200   1.029E+00
   29.300   1.019E+00
   29.400   1.008E+00
   29.500   9.979E-01
   29.600   9.879E-01
   29.700   9.780E-01
   29.800   9.682E-01
   29.900   9.587E-01
   30.000   9.492E-01
 
 Z=  54 A= 143  D1M-QRPA-Inter
 E[MeV]  fQRPA[mb/MeV]
    0.100   1.165E-03
    0.200   2.983E-03
    0.300   5.035E-03
    0.400   7.277E-03
    0.500   9.713E-03
    0.600   1.235E-02
    0.700   1.521E-02
    0.800   1.828E-02
    0.900   2.160E-02
    1.000   2.517E-02
    1.100   2.900E-02
    1.200   3.312E-02
    1.300   3.754E-02
    1.400   4.227E-02
    1.500   4.735E-02
    1.600   5.278E-02
    1.700   5.859E-02
    1.800   6.479E-02
    1.900   7.140E-02
    2.000   7.844E-02
    2.100   8.594E-02
    2.200   9.390E-02
    2.300   1.024E-01
    2.400   1.113E-01
    2.500   1.209E-01
    2.600   1.309E-01
    2.700   1.417E-01
    2.800   1.530E-01
    2.900   1.651E-01
    3.000   1.778E-01
    3.100   1.914E-01
    3.200   2.058E-01
    3.300   2.210E-01
    3.400   2.373E-01
    3.500   2.545E-01
    3.600   2.728E-01
    3.700   2.921E-01
    3.800   3.127E-01
    3.900   3.345E-01
    4.000   3.577E-01
    4.100   3.821E-01
    4.200   4.080E-01
    4.300   4.353E-01
    4.400   4.641E-01
    4.500   4.944E-01
    4.600   5.261E-01
    4.700   5.593E-01
    4.800   5.938E-01
    4.900   6.297E-01
    5.000   6.667E-01
    5.100   7.049E-01
    5.200   7.440E-01
    5.300   7.839E-01
    5.400   8.246E-01
    5.500   8.660E-01
    5.600   9.079E-01
    5.700   9.504E-01
    5.800   9.936E-01
    5.900   1.038E+00
    6.000   1.082E+00
    6.100   1.128E+00
    6.200   1.175E+00
    6.300   1.223E+00
    6.400   1.273E+00
    6.500   1.325E+00
    6.600   1.379E+00
    6.700   1.435E+00
    6.800   1.493E+00
    6.900   1.554E+00
    7.000   1.618E+00
    7.100   1.685E+00
    7.200   1.756E+00
    7.300   1.829E+00
    7.400   1.907E+00
    7.500   1.988E+00
    7.600   2.072E+00
    7.700   2.161E+00
    7.800   2.253E+00
    7.900   2.349E+00
    8.000   2.448E+00
    8.100   2.552E+00
    8.200   2.660E+00
    8.300   2.772E+00
    8.400   2.889E+00
    8.500   3.010E+00
    8.600   3.137E+00
    8.700   3.269E+00
    8.800   3.407E+00
    8.900   3.552E+00
    9.000   3.703E+00
    9.100   3.862E+00
    9.200   4.028E+00
    9.300   4.204E+00
    9.400   4.388E+00
    9.500   4.583E+00
    9.600   4.789E+00
    9.700   5.006E+00
    9.800   5.235E+00
    9.900   5.479E+00
   10.000   5.737E+00
   10.100   6.010E+00
   10.200   6.300E+00
   10.300   6.608E+00
   10.400   6.934E+00
   10.500   7.280E+00
   10.600   7.645E+00
   10.700   8.032E+00
   10.800   8.439E+00
   10.900   8.868E+00
   11.000   9.318E+00
   11.100   9.789E+00
   11.200   1.028E+01
   11.300   1.079E+01
   11.400   1.132E+01
   11.500   1.186E+01
   11.600   1.240E+01
   11.700   1.296E+01
   11.800   1.351E+01
   11.900   1.405E+01
   12.000   1.458E+01
   12.100   1.509E+01
   12.200   1.557E+01
   12.300   1.603E+01
   12.400   1.646E+01
   12.500   1.686E+01
   12.600   1.722E+01
   12.700   1.757E+01
   12.800   1.788E+01
   12.900   1.817E+01
   13.000   1.844E+01
   13.100   1.868E+01
   13.200   1.891E+01
   13.300   1.911E+01
   13.400   1.928E+01
   13.500   1.943E+01
   13.600   1.956E+01
   13.700   1.964E+01
   13.800   1.969E+01
   13.900   1.971E+01
   14.000   1.968E+01
   14.100   1.961E+01
   14.200   1.950E+01
   14.300   1.934E+01
   14.400   1.914E+01
   14.500   1.891E+01
   14.600   1.865E+01
   14.700   1.836E+01
   14.800   1.804E+01
   14.900   1.771E+01
   15.000   1.737E+01
   15.100   1.702E+01
   15.200   1.667E+01
   15.300   1.632E+01
   15.400   1.596E+01
   15.500   1.560E+01
   15.600   1.524E+01
   15.700   1.488E+01
   15.800   1.452E+01
   15.900   1.415E+01
   16.000   1.378E+01
   16.100   1.341E+01
   16.200   1.303E+01
   16.300   1.266E+01
   16.400   1.229E+01
   16.500   1.192E+01
   16.600   1.157E+01
   16.700   1.121E+01
   16.800   1.087E+01
   16.900   1.054E+01
   17.000   1.023E+01
   17.100   9.925E+00
   17.200   9.636E+00
   17.300   9.362E+00
   17.400   9.102E+00
   17.500   8.856E+00
   17.600   8.623E+00
   17.700   8.403E+00
   17.800   8.193E+00
   17.900   7.994E+00
   18.000   7.803E+00
   18.100   7.618E+00
   18.200   7.439E+00
   18.300   7.265E+00
   18.400   7.095E+00
   18.500   6.927E+00
   18.600   6.762E+00
   18.700   6.600E+00
   18.800   6.440E+00
   18.900   6.283E+00
   19.000   6.128E+00
   19.100   5.977E+00
   19.200   5.828E+00
   19.300   5.684E+00
   19.400   5.542E+00
   19.500   5.404E+00
   19.600   5.270E+00
   19.700   5.140E+00
   19.800   5.013E+00
   19.900   4.890E+00
   20.000   4.771E+00
   20.100   4.656E+00
   20.200   4.544E+00
   20.300   4.436E+00
   20.400   4.332E+00
   20.500   4.232E+00
   20.600   4.135E+00
   20.700   4.041E+00
   20.800   3.950E+00
   20.900   3.861E+00
   21.000   3.775E+00
   21.100   3.691E+00
   21.200   3.608E+00
   21.300   3.528E+00
   21.400   3.449E+00
   21.500   3.371E+00
   21.600   3.295E+00
   21.700   3.221E+00
   21.800   3.148E+00
   21.900   3.077E+00
   22.000   3.007E+00
   22.100   2.939E+00
   22.200   2.873E+00
   22.300   2.808E+00
   22.400   2.745E+00
   22.500   2.684E+00
   22.600   2.624E+00
   22.700   2.565E+00
   22.800   2.508E+00
   22.900   2.452E+00
   23.000   2.398E+00
   23.100   2.345E+00
   23.200   2.293E+00
   23.300   2.243E+00
   23.400   2.193E+00
   23.500   2.146E+00
   23.600   2.099E+00
   23.700   2.054E+00
   23.800   2.011E+00
   23.900   1.968E+00
   24.000   1.927E+00
   24.100   1.887E+00
   24.200   1.849E+00
   24.300   1.811E+00
   24.400   1.775E+00
   24.500   1.740E+00
   24.600   1.706E+00
   24.700   1.673E+00
   24.800   1.641E+00
   24.900   1.611E+00
   25.000   1.581E+00
   25.100   1.552E+00
   25.200   1.523E+00
   25.300   1.496E+00
   25.400   1.469E+00
   25.500   1.443E+00
   25.600   1.417E+00
   25.700   1.392E+00
   25.800   1.368E+00
   25.900   1.345E+00
   26.000   1.322E+00
   26.100   1.299E+00
   26.200   1.277E+00
   26.300   1.256E+00
   26.400   1.235E+00
   26.500   1.215E+00
   26.600   1.196E+00
   26.700   1.177E+00
   26.800   1.158E+00
   26.900   1.140E+00
   27.000   1.123E+00
   27.100   1.106E+00
   27.200   1.089E+00
   27.300   1.073E+00
   27.400   1.058E+00
   27.500   1.043E+00
   27.600   1.028E+00
   27.700   1.014E+00
   27.800   9.998E-01
   27.900   9.862E-01
   28.000   9.730E-01
   28.100   9.601E-01
   28.200   9.475E-01
   28.300   9.353E-01
   28.400   9.233E-01
   28.500   9.116E-01
   28.600   9.002E-01
   28.700   8.890E-01
   28.800   8.781E-01
   28.900   8.674E-01
   29.000   8.570E-01
   29.100   8.467E-01
   29.200   8.367E-01
   29.300   8.270E-01
   29.400   8.174E-01
   29.500   8.080E-01
   29.600   7.988E-01
   29.700   7.897E-01
   29.800   7.809E-01
   29.900   7.722E-01
   30.000   7.637E-01
 
 Z=  54 A= 144  D1M-QRPA
   E[MeV]   fQRPA[mb/MeV]
    0.100   7.273E-03
    0.200   1.192E-02
    0.300   1.509E-02
    0.400   1.771E-02
    0.500   2.018E-02
    0.600   2.264E-02
    0.700   2.518E-02
    0.800   2.784E-02
    0.900   3.065E-02
    1.000   3.365E-02
    1.100   3.687E-02
    1.200   4.032E-02
    1.300   4.404E-02
    1.400   4.805E-02
    1.500   5.239E-02
    1.600   5.708E-02
    1.700   6.213E-02
    1.800   6.758E-02
    1.900   7.345E-02
    2.000   7.977E-02
    2.100   8.655E-02
    2.200   9.384E-02
    2.300   1.016E-01
    2.400   1.100E-01
    2.500   1.190E-01
    2.600   1.286E-01
    2.700   1.390E-01
    2.800   1.500E-01
    2.900   1.620E-01
    3.000   1.748E-01
    3.100   1.886E-01
    3.200   2.034E-01
    3.300   2.194E-01
    3.400   2.366E-01
    3.500   2.551E-01
    3.600   2.751E-01
    3.700   2.966E-01
    3.800   3.198E-01
    3.900   3.447E-01
    4.000   3.714E-01
    4.100   4.001E-01
    4.200   4.308E-01
    4.300   4.635E-01
    4.400   4.983E-01
    4.500   5.352E-01
    4.600   5.741E-01
    4.700   6.148E-01
    4.800   6.572E-01
    4.900   7.010E-01
    5.000   7.460E-01
    5.100   7.917E-01
    5.200   8.379E-01
    5.300   8.841E-01
    5.400   9.301E-01
    5.500   9.756E-01
    5.600   1.020E+00
    5.700   1.064E+00
    5.800   1.107E+00
    5.900   1.150E+00
    6.000   1.192E+00
    6.100   1.234E+00
    6.200   1.276E+00
    6.300   1.319E+00
    6.400   1.363E+00
    6.500   1.408E+00
    6.600   1.455E+00
    6.700   1.504E+00
    6.800   1.555E+00
    6.900   1.610E+00
    7.000   1.667E+00
    7.100   1.728E+00
    7.200   1.793E+00
    7.300   1.862E+00
    7.400   1.934E+00
    7.500   2.011E+00
    7.600   2.093E+00
    7.700   2.178E+00
    7.800   2.267E+00
    7.900   2.361E+00
    8.000   2.458E+00
    8.100   2.559E+00
    8.200   2.664E+00
    8.300   2.774E+00
    8.400   2.887E+00
    8.500   3.006E+00
    8.600   3.129E+00
    8.700   3.258E+00
    8.800   3.393E+00
    8.900   3.534E+00
    9.000   3.683E+00
    9.100   3.840E+00
    9.200   4.006E+00
    9.300   4.181E+00
    9.400   4.367E+00
    9.500   4.564E+00
    9.600   4.774E+00
    9.700   4.999E+00
    9.800   5.238E+00
    9.900   5.495E+00
   10.000   5.771E+00
   10.100   6.066E+00
   10.200   6.384E+00
   10.300   6.725E+00
   10.400   7.092E+00
   10.500   7.484E+00
   10.600   7.904E+00
   10.700   8.352E+00
   10.800   8.829E+00
   10.900   9.335E+00
   11.000   9.869E+00
   11.100   1.043E+01
   11.200   1.102E+01
   11.300   1.163E+01
   11.400   1.225E+01
   11.500   1.289E+01
   11.600   1.353E+01
   11.700   1.416E+01
   11.800   1.476E+01
   11.900   1.534E+01
   12.000   1.587E+01
   12.100   1.635E+01
   12.200   1.676E+01
   12.300   1.711E+01
   12.400   1.740E+01
   12.500   1.763E+01
   12.600   1.781E+01
   12.700   1.795E+01
   12.800   1.805E+01
   12.900   1.813E+01
   13.000   1.819E+01
   13.100   1.824E+01
   13.200   1.829E+01
   13.300   1.833E+01
   13.400   1.837E+01
   13.500   1.840E+01
   13.600   1.842E+01
   13.700   1.842E+01
   13.800   1.841E+01
   13.900   1.838E+01
   14.000   1.831E+01
   14.100   1.822E+01
   14.200   1.810E+01
   14.300   1.794E+01
   14.400   1.775E+01
   14.500   1.754E+01
   14.600   1.730E+01
   14.700   1.704E+01
   14.800   1.678E+01
   14.900   1.650E+01
   15.000   1.623E+01
   15.100   1.597E+01
   15.200   1.571E+01
   15.300   1.546E+01
   15.400   1.521E+01
   15.500   1.496E+01
   15.600   1.472E+01
   15.700   1.447E+01
   15.800   1.421E+01
   15.900   1.394E+01
   16.000   1.366E+01
   16.100   1.336E+01
   16.200   1.305E+01
   16.300   1.273E+01
   16.400   1.241E+01
   16.500   1.208E+01
   16.600   1.175E+01
   16.700   1.143E+01
   16.800   1.111E+01
   16.900   1.080E+01
   17.000   1.050E+01
   17.100   1.022E+01
   17.200   9.954E+00
   17.300   9.705E+00
   17.400   9.473E+00
   17.500   9.258E+00
   17.600   9.059E+00
   17.700   8.875E+00
   17.800   8.703E+00
   17.900   8.541E+00
   18.000   8.387E+00
   18.100   8.237E+00
   18.200   8.090E+00
   18.300   7.944E+00
   18.400   7.797E+00
   18.500   7.648E+00
   18.600   7.496E+00
   18.700   7.341E+00
   18.800   7.184E+00
   18.900   7.025E+00
   19.000   6.864E+00
   19.100   6.704E+00
   19.200   6.544E+00
   19.300   6.385E+00
   19.400   6.227E+00
   19.500   6.072E+00
   19.600   5.919E+00
   19.700   5.769E+00
   19.800   5.622E+00
   19.900   5.479E+00
   20.000   5.340E+00
   20.100   5.204E+00
   20.200   5.073E+00
   20.300   4.946E+00
   20.400   4.824E+00
   20.500   4.706E+00
   20.600   4.592E+00
   20.700   4.482E+00
   20.800   4.375E+00
   20.900   4.271E+00
   21.000   4.168E+00
   21.100   4.068E+00
   21.200   3.968E+00
   21.300   3.870E+00
   21.400   3.773E+00
   21.500   3.677E+00
   21.600   3.583E+00
   21.700   3.489E+00
   21.800   3.398E+00
   21.900   3.308E+00
   22.000   3.219E+00
   22.100   3.133E+00
   22.200   3.049E+00
   22.300   2.966E+00
   22.400   2.886E+00
   22.500   2.807E+00
   22.600   2.731E+00
   22.700   2.656E+00
   22.800   2.583E+00
   22.900   2.512E+00
   23.000   2.442E+00
   23.100   2.375E+00
   23.200   2.309E+00
   23.300   2.245E+00
   23.400   2.183E+00
   23.500   2.123E+00
   23.600   2.065E+00
   23.700   2.009E+00
   23.800   1.954E+00
   23.900   1.902E+00
   24.000   1.852E+00
   24.100   1.803E+00
   24.200   1.756E+00
   24.300   1.711E+00
   24.400   1.668E+00
   24.500   1.627E+00
   24.600   1.587E+00
   24.700   1.548E+00
   24.800   1.511E+00
   24.900   1.476E+00
   25.000   1.442E+00
   25.100   1.409E+00
   25.200   1.377E+00
   25.300   1.346E+00
   25.400   1.316E+00
   25.500   1.286E+00
   25.600   1.258E+00
   25.700   1.231E+00
   25.800   1.204E+00
   25.900   1.178E+00
   26.000   1.153E+00
   26.100   1.128E+00
   26.200   1.105E+00
   26.300   1.082E+00
   26.400   1.060E+00
   26.500   1.038E+00
   26.600   1.018E+00
   26.700   9.978E-01
   26.800   9.786E-01
   26.900   9.600E-01
   27.000   9.422E-01
   27.100   9.250E-01
   27.200   9.083E-01
   27.300   8.923E-01
   27.400   8.769E-01
   27.500   8.620E-01
   27.600   8.476E-01
   27.700   8.336E-01
   27.800   8.201E-01
   27.900   8.071E-01
   28.000   7.945E-01
   28.100   7.822E-01
   28.200   7.703E-01
   28.300   7.588E-01
   28.400   7.476E-01
   28.500   7.368E-01
   28.600   7.262E-01
   28.700   7.159E-01
   28.800   7.059E-01
   28.900   6.962E-01
   29.000   6.867E-01
   29.100   6.775E-01
   29.200   6.685E-01
   29.300   6.597E-01
   29.400   6.511E-01
   29.500   6.427E-01
   29.600   6.346E-01
   29.700   6.266E-01
   29.800   6.188E-01
   29.900   6.112E-01
   30.000   6.037E-01
 
 Z=  54 A= 145  D1M-QRPA-Inter
 E[MeV]  fQRPA[mb/MeV]
    0.100   1.732E-02
    0.200   2.320E-02
    0.300   2.672E-02
    0.400   2.944E-02
    0.500   3.182E-02
    0.600   3.405E-02
    0.700   3.620E-02
    0.800   3.835E-02
    0.900   4.054E-02
    1.000   4.281E-02
    1.100   4.520E-02
    1.200   4.776E-02
    1.300   5.053E-02
    1.400   5.353E-02
    1.500   5.682E-02
    1.600   6.042E-02
    1.700   6.438E-02
    1.800   6.872E-02
    1.900   7.348E-02
    2.000   7.867E-02
    2.100   8.433E-02
    2.200   9.049E-02
    2.300   9.719E-02
    2.400   1.045E-01
    2.500   1.124E-01
    2.600   1.211E-01
    2.700   1.305E-01
    2.800   1.409E-01
    2.900   1.522E-01
    3.000   1.646E-01
    3.100   1.781E-01
    3.200   1.929E-01
    3.300   2.091E-01
    3.400   2.268E-01
    3.500   2.461E-01
    3.600   2.672E-01
    3.700   2.904E-01
    3.800   3.158E-01
    3.900   3.436E-01
    4.000   3.741E-01
    4.100   4.072E-01
    4.200   4.431E-01
    4.300   4.816E-01
    4.400   5.226E-01
    4.500   5.657E-01
    4.600   6.106E-01
    4.700   6.568E-01
    4.800   7.037E-01
    4.900   7.509E-01
    5.000   7.978E-01
    5.100   8.438E-01
    5.200   8.885E-01
    5.300   9.314E-01
    5.400   9.724E-01
    5.500   1.011E+00
    5.600   1.049E+00
    5.700   1.084E+00
    5.800   1.119E+00
    5.900   1.153E+00
    6.000   1.186E+00
    6.100   1.219E+00
    6.200   1.252E+00
    6.300   1.286E+00
    6.400   1.322E+00
    6.500   1.360E+00
    6.600   1.402E+00
    6.700   1.447E+00
    6.800   1.496E+00
    6.900   1.550E+00
    7.000   1.609E+00
    7.100   1.673E+00
    7.200   1.741E+00
    7.300   1.813E+00
    7.400   1.889E+00
    7.500   1.968E+00
    7.600   2.051E+00
    7.700   2.136E+00
    7.800   2.223E+00
    7.900   2.314E+00
    8.000   2.407E+00
    8.100   2.504E+00
    8.200   2.606E+00
    8.300   2.713E+00
    8.400   2.827E+00
    8.500   2.948E+00
    8.600   3.077E+00
    8.700   3.215E+00
    8.800   3.363E+00
    8.900   3.521E+00
    9.000   3.689E+00
    9.100   3.869E+00
    9.200   4.061E+00
    9.300   4.267E+00
    9.400   4.487E+00
    9.500   4.726E+00
    9.600   4.985E+00
    9.700   5.267E+00
    9.800   5.576E+00
    9.900   5.912E+00
   10.000   6.279E+00
   10.100   6.678E+00
   10.200   7.111E+00
   10.300   7.579E+00
   10.400   8.084E+00
   10.500   8.627E+00
   10.600   9.209E+00
   10.700   9.829E+00
   10.800   1.049E+01
   10.900   1.118E+01
   11.000   1.189E+01
   11.100   1.262E+01
   11.200   1.334E+01
   11.300   1.404E+01
   11.400   1.468E+01
   11.500   1.525E+01
   11.600   1.574E+01
   11.700   1.613E+01
   11.800   1.644E+01
   11.900   1.667E+01
   12.000   1.685E+01
   12.100   1.698E+01
   12.200   1.708E+01
   12.300   1.716E+01
   12.400   1.725E+01
   12.500   1.733E+01
   12.600   1.743E+01
   12.700   1.753E+01
   12.800   1.764E+01
   12.900   1.775E+01
   13.000   1.786E+01
   13.100   1.795E+01
   13.200   1.803E+01
   13.300   1.808E+01
   13.400   1.809E+01
   13.500   1.806E+01
   13.600   1.799E+01
   13.700   1.786E+01
   13.800   1.769E+01
   13.900   1.746E+01
   14.000   1.720E+01
   14.100   1.692E+01
   14.200   1.663E+01
   14.300   1.634E+01
   14.400   1.605E+01
   14.500   1.578E+01
   14.600   1.552E+01
   14.700   1.525E+01
   14.800   1.497E+01
   14.900   1.468E+01
   15.000   1.436E+01
   15.100   1.404E+01
   15.200   1.370E+01
   15.300   1.335E+01
   15.400   1.301E+01
   15.500   1.267E+01
   15.600   1.235E+01
   15.700   1.203E+01
   15.800   1.173E+01
   15.900   1.145E+01
   16.000   1.118E+01
   16.100   1.093E+01
   16.200   1.070E+01
   16.300   1.048E+01
   16.400   1.027E+01
   16.500   1.007E+01
   16.600   9.870E+00
   16.700   9.672E+00
   16.800   9.471E+00
   16.900   9.263E+00
   17.000   9.049E+00
   17.100   8.828E+00
   17.200   8.604E+00
   17.300   8.380E+00
   17.400   8.159E+00
   17.500   7.944E+00
   17.600   7.736E+00
   17.700   7.537E+00
   17.800   7.345E+00
   17.900   7.159E+00
   18.000   6.979E+00
   18.100   6.802E+00
   18.200   6.630E+00
   18.300   6.462E+00
   18.400   6.298E+00
   18.500   6.140E+00
   18.600   5.985E+00
   18.700   5.834E+00
   18.800   5.685E+00
   18.900   5.537E+00
   19.000   5.389E+00
   19.100   5.242E+00
   19.200   5.094E+00
   19.300   4.947E+00
   19.400   4.800E+00
   19.500   4.654E+00
   19.600   4.511E+00
   19.700   4.371E+00
   19.800   4.234E+00
   19.900   4.100E+00
   20.000   3.970E+00
   20.100   3.843E+00
   20.200   3.720E+00
   20.300   3.599E+00
   20.400   3.481E+00
   20.500   3.367E+00
   20.600   3.256E+00
   20.700   3.149E+00
   20.800   3.046E+00
   20.900   2.946E+00
   21.000   2.850E+00
   21.100   2.758E+00
   21.200   2.669E+00
   21.300   2.583E+00
   21.400   2.500E+00
   21.500   2.420E+00
   21.600   2.343E+00
   21.700   2.269E+00
   21.800   2.197E+00
   21.900   2.127E+00
   22.000   2.059E+00
   22.100   1.993E+00
   22.200   1.930E+00
   22.300   1.868E+00
   22.400   1.809E+00
   22.500   1.752E+00
   22.600   1.697E+00
   22.700   1.645E+00
   22.800   1.596E+00
   22.900   1.548E+00
   23.000   1.503E+00
   23.100   1.460E+00
   23.200   1.419E+00
   23.300   1.379E+00
   23.400   1.341E+00
   23.500   1.305E+00
   23.600   1.271E+00
   23.700   1.238E+00
   23.800   1.206E+00
   23.900   1.176E+00
   24.000   1.147E+00
   24.100   1.119E+00
   24.200   1.092E+00
   24.300   1.067E+00
   24.400   1.042E+00
   24.500   1.019E+00
   24.600   9.960E-01
   24.700   9.742E-01
   24.800   9.532E-01
   24.900   9.330E-01
   25.000   9.135E-01
   25.100   8.947E-01
   25.200   8.766E-01
   25.300   8.590E-01
   25.400   8.419E-01
   25.500   8.254E-01
   25.600   8.094E-01
   25.700   7.938E-01
   25.800   7.787E-01
   25.900   7.641E-01
   26.000   7.498E-01
   26.100   7.360E-01
   26.200   7.226E-01
   26.300   7.095E-01
   26.400   6.969E-01
   26.500   6.847E-01
   26.600   6.728E-01
   26.700   6.613E-01
   26.800   6.502E-01
   26.900   6.394E-01
   27.000   6.289E-01
   27.100   6.188E-01
   27.200   6.089E-01
   27.300   5.994E-01
   27.400   5.902E-01
   27.500   5.812E-01
   27.600   5.725E-01
   27.700   5.640E-01
   27.800   5.558E-01
   27.900   5.478E-01
   28.000   5.400E-01
   28.100   5.325E-01
   28.200   5.251E-01
   28.300   5.179E-01
   28.400   5.109E-01
   28.500   5.041E-01
   28.600   4.974E-01
   28.700   4.910E-01
   28.800   4.846E-01
   28.900   4.784E-01
   29.000   4.724E-01
   29.100   4.665E-01
   29.200   4.607E-01
   29.300   4.550E-01
   29.400   4.495E-01
   29.500   4.441E-01
   29.600   4.388E-01
   29.700   4.336E-01
   29.800   4.286E-01
   29.900   4.236E-01
   30.000   4.187E-01
 
 Z=  54 A= 146  D1M-QRPA
   E[MeV]   fQRPA[mb/MeV]
    0.100   3.886E-02
    0.200   4.251E-02
    0.300   4.456E-02
    0.400   4.607E-02
    0.500   4.726E-02
    0.600   4.822E-02
    0.700   4.902E-02
    0.800   4.975E-02
    0.900   5.049E-02
    1.000   5.128E-02
    1.100   5.220E-02
    1.200   5.329E-02
    1.300   5.459E-02
    1.400   5.615E-02
    1.500   5.802E-02
    1.600   6.023E-02
    1.700   6.281E-02
    1.800   6.580E-02
    1.900   6.921E-02
    2.000   7.306E-02
    2.100   7.738E-02
    2.200   8.218E-02
    2.300   8.751E-02
    2.400   9.343E-02
    2.500   1.000E-01
    2.600   1.073E-01
    2.700   1.155E-01
    2.800   1.246E-01
    2.900   1.347E-01
    3.000   1.459E-01
    3.100   1.584E-01
    3.200   1.723E-01
    3.300   1.877E-01
    3.400   2.047E-01
    3.500   2.235E-01
    3.600   2.444E-01
    3.700   2.677E-01
    3.800   2.937E-01
    3.900   3.226E-01
    4.000   3.547E-01
    4.100   3.902E-01
    4.200   4.291E-01
    4.300   4.712E-01
    4.400   5.160E-01
    4.500   5.631E-01
    4.600   6.117E-01
    4.700   6.608E-01
    4.800   7.097E-01
    4.900   7.575E-01
    5.000   8.034E-01
    5.100   8.468E-01
    5.200   8.872E-01
    5.300   9.240E-01
    5.400   9.574E-01
    5.500   9.875E-01
    5.600   1.015E+00
    5.700   1.041E+00
    5.800   1.065E+00
    5.900   1.088E+00
    6.000   1.111E+00
    6.100   1.134E+00
    6.200   1.157E+00
    6.300   1.181E+00
    6.400   1.208E+00
    6.500   1.237E+00
    6.600   1.271E+00
    6.700   1.310E+00
    6.800   1.355E+00
    6.900   1.406E+00
    7.000   1.462E+00
    7.100   1.525E+00
    7.200   1.592E+00
    7.300   1.663E+00
    7.400   1.737E+00
    7.500   1.814E+00
    7.600   1.892E+00
    7.700   1.972E+00
    7.800   2.053E+00
    7.900   2.136E+00
    8.000   2.220E+00
    8.100   2.308E+00
    8.200   2.401E+00
    8.300   2.499E+00
    8.400   2.606E+00
    8.500   2.722E+00
    8.600   2.849E+00
    8.700   2.988E+00
    8.800   3.139E+00
    8.900   3.302E+00
    9.000   3.480E+00
    9.100   3.671E+00
    9.200   3.877E+00
    9.300   4.100E+00
    9.400   4.342E+00
    9.500   4.608E+00
    9.600   4.901E+00
    9.700   5.227E+00
    9.800   5.588E+00
    9.900   5.990E+00
   10.000   6.434E+00
   10.100   6.923E+00
   10.200   7.459E+00
   10.300   8.044E+00
   10.400   8.678E+00
   10.500   9.365E+00
   10.600   1.010E+01
   10.700   1.089E+01
   10.800   1.173E+01
   10.900   1.260E+01
   11.000   1.350E+01
   11.100   1.438E+01
   11.200   1.522E+01
   11.300   1.596E+01
   11.400   1.656E+01
   11.500   1.699E+01
   11.600   1.724E+01
   11.700   1.731E+01
   11.800   1.724E+01
   11.900   1.707E+01
   12.000   1.684E+01
   12.100   1.660E+01
   12.200   1.638E+01
   12.300   1.621E+01
   12.400   1.609E+01
   12.500   1.604E+01
   12.600   1.605E+01
   12.700   1.612E+01
   12.800   1.623E+01
   12.900   1.637E+01
   13.000   1.651E+01
   13.100   1.664E+01
   13.200   1.674E+01
   13.300   1.679E+01
   13.400   1.678E+01
   13.500   1.670E+01
   13.600   1.655E+01
   13.700   1.631E+01
   13.800   1.600E+01
   13.900   1.563E+01
   14.000   1.522E+01
   14.100   1.479E+01
   14.200   1.438E+01
   14.300   1.401E+01
   14.400   1.367E+01
   14.500   1.338E+01
   14.600   1.311E+01
   14.700   1.285E+01
   14.800   1.258E+01
   14.900   1.229E+01
   15.000   1.197E+01
   15.100   1.162E+01
   15.200   1.125E+01
   15.300   1.086E+01
   15.400   1.048E+01
   15.500   1.010E+01
   15.600   9.751E+00
   15.700   9.423E+00
   15.800   9.124E+00
   15.900   8.858E+00
   16.000   8.625E+00
   16.100   8.426E+00
   16.200   8.259E+00
   16.300   8.120E+00
   16.400   8.003E+00
   16.500   7.901E+00
   16.600   7.806E+00
   16.700   7.709E+00
   16.800   7.603E+00
   16.900   7.482E+00
   17.000   7.341E+00
   17.100   7.181E+00
   17.200   7.004E+00
   17.300   6.814E+00
   17.400   6.618E+00
   17.500   6.419E+00
   17.600   6.221E+00
   17.700   6.028E+00
   17.800   5.838E+00
   17.900   5.651E+00
   18.000   5.469E+00
   18.100   5.290E+00
   18.200   5.116E+00
   18.300   4.950E+00
   18.400   4.791E+00
   18.500   4.641E+00
   18.600   4.500E+00
   18.700   4.365E+00
   18.800   4.236E+00
   18.900   4.109E+00
   19.000   3.984E+00
   19.100   3.860E+00
   19.200   3.735E+00
   19.300   3.609E+00
   19.400   3.484E+00
   19.500   3.360E+00
   19.600   3.238E+00
   19.700   3.118E+00
   19.800   3.002E+00
   19.900   2.890E+00
   20.000   2.780E+00
   20.100   2.673E+00
   20.200   2.568E+00
   20.300   2.466E+00
   20.400   2.366E+00
   20.500   2.268E+00
   20.600   2.174E+00
   20.700   2.083E+00
   20.800   1.996E+00
   20.900   1.914E+00
   21.000   1.835E+00
   21.100   1.760E+00
   21.200   1.690E+00
   21.300   1.623E+00
   21.400   1.560E+00
   21.500   1.500E+00
   21.600   1.443E+00
   21.700   1.389E+00
   21.800   1.338E+00
   21.900   1.288E+00
   22.000   1.240E+00
   22.100   1.194E+00
   22.200   1.150E+00
   22.300   1.108E+00
   22.400   1.068E+00
   22.500   1.030E+00
   22.600   9.936E-01
   22.700   9.600E-01
   22.800   9.284E-01
   22.900   8.988E-01
   23.000   8.711E-01
   23.100   8.451E-01
   23.200   8.207E-01
   23.300   7.978E-01
   23.400   7.762E-01
   23.500   7.558E-01
   23.600   7.366E-01
   23.700   7.184E-01
   23.800   7.011E-01
   23.900   6.846E-01
   24.000   6.690E-01
   24.100   6.541E-01
   24.200   6.399E-01
   24.300   6.263E-01
   24.400   6.132E-01
   24.500   6.007E-01
   24.600   5.887E-01
   24.700   5.772E-01
   24.800   5.661E-01
   24.900   5.554E-01
   25.000   5.451E-01
   25.100   5.352E-01
   25.200   5.256E-01
   25.300   5.164E-01
   25.400   5.074E-01
   25.500   4.987E-01
   25.600   4.903E-01
   25.700   4.822E-01
   25.800   4.743E-01
   25.900   4.667E-01
   26.000   4.592E-01
   26.100   4.520E-01
   26.200   4.450E-01
   26.300   4.382E-01
   26.400   4.316E-01
   26.500   4.251E-01
   26.600   4.188E-01
   26.700   4.127E-01
   26.800   4.068E-01
   26.900   4.010E-01
   27.000   3.953E-01
   27.100   3.898E-01
   27.200   3.844E-01
   27.300   3.792E-01
   27.400   3.740E-01
   27.500   3.690E-01
   27.600   3.642E-01
   27.700   3.594E-01
   27.800   3.547E-01
   27.900   3.502E-01
   28.000   3.457E-01
   28.100   3.413E-01
   28.200   3.371E-01
   28.300   3.329E-01
   28.400   3.288E-01
   28.500   3.248E-01
   28.600   3.209E-01
   28.700   3.170E-01
   28.800   3.133E-01
   28.900   3.096E-01
   29.000   3.060E-01
   29.100   3.025E-01
   29.200   2.990E-01
   29.300   2.956E-01
   29.400   2.922E-01
   29.500   2.890E-01
   29.600   2.858E-01
   29.700   2.826E-01
   29.800   2.795E-01
   29.900   2.765E-01
   30.000   2.735E-01
 
