 Z=  56 A= 134  D1M-QRPA
   E[MeV]   fQRPA[mb/MeV]
    0.100   7.733E-05
    0.200   3.095E-04
    0.300   6.967E-04
    0.400   1.240E-03
    0.500   1.939E-03
    0.600   2.797E-03
    0.700   3.813E-03
    0.800   4.990E-03
    0.900   6.330E-03
    1.000   7.834E-03
    1.100   9.504E-03
    1.200   1.134E-02
    1.300   1.335E-02
    1.400   1.554E-02
    1.500   1.790E-02
    1.600   2.044E-02
    1.700   2.317E-02
    1.800   2.608E-02
    1.900   2.918E-02
    2.000   3.246E-02
    2.100   3.594E-02
    2.200   3.961E-02
    2.300   4.347E-02
    2.400   4.753E-02
    2.500   5.178E-02
    2.600   5.622E-02
    2.700   6.086E-02
    2.800   6.570E-02
    2.900   7.073E-02
    3.000   7.597E-02
    3.100   8.141E-02
    3.200   8.706E-02
    3.300   9.293E-02
    3.400   9.903E-02
    3.500   1.054E-01
    3.600   1.120E-01
    3.700   1.188E-01
    3.800   1.259E-01
    3.900   1.333E-01
    4.000   1.411E-01
    4.100   1.491E-01
    4.200   1.575E-01
    4.300   1.662E-01
    4.400   1.753E-01
    4.500   1.847E-01
    4.600   1.946E-01
    4.700   2.049E-01
    4.800   2.156E-01
    4.900   2.268E-01
    5.000   2.384E-01
    5.100   2.505E-01
    5.200   2.632E-01
    5.300   2.764E-01
    5.400   2.901E-01
    5.500   3.044E-01
    5.600   3.193E-01
    5.700   3.348E-01
    5.800   3.510E-01
    5.900   3.679E-01
    6.000   3.855E-01
    6.100   4.039E-01
    6.200   4.230E-01
    6.300   4.430E-01
    6.400   4.638E-01
    6.500   4.856E-01
    6.600   5.083E-01
    6.700   5.320E-01
    6.800   5.568E-01
    6.900   5.827E-01
    7.000   6.098E-01
    7.100   6.382E-01
    7.200   6.678E-01
    7.300   6.989E-01
    7.400   7.314E-01
    7.500   7.655E-01
    7.600   8.012E-01
    7.700   8.386E-01
    7.800   8.778E-01
    7.900   9.189E-01
    8.000   9.619E-01
    8.100   1.007E+00
    8.200   1.054E+00
    8.300   1.104E+00
    8.400   1.156E+00
    8.500   1.210E+00
    8.600   1.267E+00
    8.700   1.327E+00
    8.800   1.389E+00
    8.900   1.455E+00
    9.000   1.523E+00
    9.100   1.595E+00
    9.200   1.670E+00
    9.300   1.749E+00
    9.400   1.832E+00
    9.500   1.918E+00
    9.600   2.009E+00
    9.700   2.104E+00
    9.800   2.204E+00
    9.900   2.308E+00
   10.000   2.417E+00
   10.100   2.532E+00
   10.200   2.652E+00
   10.300   2.778E+00
   10.400   2.910E+00
   10.500   3.048E+00
   10.600   3.193E+00
   10.700   3.345E+00
   10.800   3.504E+00
   10.900   3.671E+00
   11.000   3.845E+00
   11.100   4.027E+00
   11.200   4.218E+00
   11.300   4.417E+00
   11.400   4.626E+00
   11.500   4.844E+00
   11.600   5.073E+00
   11.700   5.312E+00
   11.800   5.563E+00
   11.900   5.825E+00
   12.000   6.102E+00
   12.100   6.392E+00
   12.200   6.698E+00
   12.300   7.020E+00
   12.400   7.361E+00
   12.500   7.721E+00
   12.600   8.102E+00
   12.700   8.507E+00
   12.800   8.936E+00
   12.900   9.392E+00
   13.000   9.876E+00
   13.100   1.039E+01
   13.200   1.094E+01
   13.300   1.151E+01
   13.400   1.213E+01
   13.500   1.277E+01
   13.600   1.345E+01
   13.700   1.416E+01
   13.800   1.490E+01
   13.900   1.566E+01
   14.000   1.645E+01
   14.100   1.725E+01
   14.200   1.806E+01
   14.300   1.887E+01
   14.400   1.967E+01
   14.500   2.045E+01
   14.600   2.120E+01
   14.700   2.191E+01
   14.800   2.256E+01
   14.900   2.314E+01
   15.000   2.366E+01
   15.100   2.409E+01
   15.200   2.444E+01
   15.300   2.470E+01
   15.400   2.487E+01
   15.500   2.495E+01
   15.600   2.493E+01
   15.700   2.483E+01
   15.800   2.464E+01
   15.900   2.437E+01
   16.000   2.402E+01
   16.100   2.360E+01
   16.200   2.311E+01
   16.300   2.257E+01
   16.400   2.197E+01
   16.500   2.133E+01
   16.600   2.066E+01
   16.700   1.996E+01
   16.800   1.925E+01
   16.900   1.853E+01
   17.000   1.781E+01
   17.100   1.709E+01
   17.200   1.638E+01
   17.300   1.569E+01
   17.400   1.502E+01
   17.500   1.436E+01
   17.600   1.373E+01
   17.700   1.313E+01
   17.800   1.254E+01
   17.900   1.199E+01
   18.000   1.146E+01
   18.100   1.095E+01
   18.200   1.047E+01
   18.300   1.001E+01
   18.400   9.575E+00
   18.500   9.162E+00
   18.600   8.772E+00
   18.700   8.402E+00
   18.800   8.052E+00
   18.900   7.721E+00
   19.000   7.408E+00
   19.100   7.111E+00
   19.200   6.831E+00
   19.300   6.567E+00
   19.400   6.316E+00
   19.500   6.079E+00
   19.600   5.855E+00
   19.700   5.642E+00
   19.800   5.441E+00
   19.900   5.250E+00
   20.000   5.069E+00
   20.100   4.897E+00
   20.200   4.734E+00
   20.300   4.579E+00
   20.400   4.431E+00
   20.500   4.291E+00
   20.600   4.157E+00
   20.700   4.030E+00
   20.800   3.909E+00
   20.900   3.793E+00
   21.000   3.682E+00
   21.100   3.577E+00
   21.200   3.476E+00
   21.300   3.379E+00
   21.400   3.287E+00
   21.500   3.198E+00
   21.600   3.114E+00
   21.700   3.032E+00
   21.800   2.954E+00
   21.900   2.879E+00
   22.000   2.807E+00
   22.100   2.738E+00
   22.200   2.672E+00
   22.300   2.608E+00
   22.400   2.546E+00
   22.500   2.487E+00
   22.600   2.430E+00
   22.700   2.375E+00
   22.800   2.322E+00
   22.900   2.271E+00
   23.000   2.221E+00
   23.100   2.174E+00
   23.200   2.128E+00
   23.300   2.083E+00
   23.400   2.040E+00
   23.500   1.998E+00
   23.600   1.958E+00
   23.700   1.919E+00
   23.800   1.881E+00
   23.900   1.845E+00
   24.000   1.809E+00
   24.100   1.775E+00
   24.200   1.742E+00
   24.300   1.709E+00
   24.400   1.678E+00
   24.500   1.647E+00
   24.600   1.618E+00
   24.700   1.589E+00
   24.800   1.561E+00
   24.900   1.534E+00
   25.000   1.508E+00
   25.100   1.482E+00
   25.200   1.457E+00
   25.300   1.433E+00
   25.400   1.409E+00
   25.500   1.386E+00
   25.600   1.364E+00
   25.700   1.342E+00
   25.800   1.321E+00
   25.900   1.300E+00
   26.000   1.280E+00
   26.100   1.260E+00
   26.200   1.241E+00
   26.300   1.222E+00
   26.400   1.204E+00
   26.500   1.186E+00
   26.600   1.168E+00
   26.700   1.151E+00
   26.800   1.135E+00
   26.900   1.119E+00
   27.000   1.103E+00
   27.100   1.087E+00
   27.200   1.072E+00
   27.300   1.057E+00
   27.400   1.043E+00
   27.500   1.029E+00
   27.600   1.015E+00
   27.700   1.001E+00
   27.800   9.879E-01
   27.900   9.749E-01
   28.000   9.622E-01
   28.100   9.497E-01
   28.200   9.375E-01
   28.300   9.256E-01
   28.400   9.139E-01
   28.500   9.025E-01
   28.600   8.912E-01
   28.700   8.802E-01
   28.800   8.695E-01
   28.900   8.589E-01
   29.000   8.485E-01
   29.100   8.384E-01
   29.200   8.284E-01
   29.300   8.186E-01
   29.400   8.091E-01
   29.500   7.996E-01
   29.600   7.904E-01
   29.700   7.814E-01
   29.800   7.725E-01
   29.900   7.637E-01
   30.000   7.552E-01
 
 Z=  56 A= 135  D1M-QRPA-Inter
 E[MeV]  fQRPA[mb/MeV]
    0.100   8.327E-04
    0.200   2.332E-03
    0.300   3.911E-03
    0.400   5.544E-03
    0.500   7.259E-03
    0.600   9.072E-03
    0.700   1.099E-02
    0.800   1.302E-02
    0.900   1.515E-02
    1.000   1.739E-02
    1.100   1.973E-02
    1.200   2.217E-02
    1.300   2.471E-02
    1.400   2.735E-02
    1.500   3.010E-02
    1.600   3.295E-02
    1.700   3.591E-02
    1.800   3.899E-02
    1.900   4.219E-02
    2.000   4.553E-02
    2.100   4.900E-02
    2.200   5.262E-02
    2.300   5.639E-02
    2.400   6.033E-02
    2.500   6.444E-02
    2.600   6.872E-02
    2.700   7.319E-02
    2.800   7.785E-02
    2.900   8.271E-02
    3.000   8.778E-02
    3.100   9.307E-02
    3.200   9.858E-02
    3.300   1.043E-01
    3.400   1.103E-01
    3.500   1.166E-01
    3.600   1.231E-01
    3.700   1.299E-01
    3.800   1.370E-01
    3.900   1.444E-01
    4.000   1.521E-01
    4.100   1.601E-01
    4.200   1.685E-01
    4.300   1.772E-01
    4.400   1.863E-01
    4.500   1.958E-01
    4.600   2.056E-01
    4.700   2.159E-01
    4.800   2.267E-01
    4.900   2.379E-01
    5.000   2.496E-01
    5.100   2.618E-01
    5.200   2.745E-01
    5.300   2.877E-01
    5.400   3.016E-01
    5.500   3.160E-01
    5.600   3.310E-01
    5.700   3.467E-01
    5.800   3.630E-01
    5.900   3.801E-01
    6.000   3.979E-01
    6.100   4.165E-01
    6.200   4.359E-01
    6.300   4.562E-01
    6.400   4.774E-01
    6.500   4.995E-01
    6.600   5.226E-01
    6.700   5.467E-01
    6.800   5.720E-01
    6.900   5.984E-01
    7.000   6.260E-01
    7.100   6.550E-01
    7.200   6.853E-01
    7.300   7.170E-01
    7.400   7.503E-01
    7.500   7.852E-01
    7.600   8.218E-01
    7.700   8.601E-01
    7.800   9.003E-01
    7.900   9.425E-01
    8.000   9.867E-01
    8.100   1.033E+00
    8.200   1.082E+00
    8.300   1.133E+00
    8.400   1.187E+00
    8.500   1.243E+00
    8.600   1.302E+00
    8.700   1.364E+00
    8.800   1.429E+00
    8.900   1.497E+00
    9.000   1.568E+00
    9.100   1.643E+00
    9.200   1.722E+00
    9.300   1.804E+00
    9.400   1.891E+00
    9.500   1.982E+00
    9.600   2.078E+00
    9.700   2.179E+00
    9.800   2.284E+00
    9.900   2.395E+00
   10.000   2.512E+00
   10.100   2.634E+00
   10.200   2.763E+00
   10.300   2.898E+00
   10.400   3.040E+00
   10.500   3.189E+00
   10.600   3.346E+00
   10.700   3.511E+00
   10.800   3.683E+00
   10.900   3.865E+00
   11.000   4.056E+00
   11.100   4.256E+00
   11.200   4.466E+00
   11.300   4.687E+00
   11.400   4.919E+00
   11.500   5.163E+00
   11.600   5.420E+00
   11.700   5.689E+00
   11.800   5.972E+00
   11.900   6.270E+00
   12.000   6.583E+00
   12.100   6.913E+00
   12.200   7.261E+00
   12.300   7.628E+00
   12.400   8.016E+00
   12.500   8.426E+00
   12.600   8.861E+00
   12.700   9.322E+00
   12.800   9.810E+00
   12.900   1.033E+01
   13.000   1.088E+01
   13.100   1.146E+01
   13.200   1.208E+01
   13.300   1.274E+01
   13.400   1.343E+01
   13.500   1.415E+01
   13.600   1.491E+01
   13.700   1.570E+01
   13.800   1.651E+01
   13.900   1.735E+01
   14.000   1.819E+01
   14.100   1.904E+01
   14.200   1.987E+01
   14.300   2.068E+01
   14.400   2.146E+01
   14.500   2.218E+01
   14.600   2.284E+01
   14.700   2.342E+01
   14.800   2.391E+01
   14.900   2.431E+01
   15.000   2.459E+01
   15.100   2.477E+01
   15.200   2.484E+01
   15.300   2.481E+01
   15.400   2.467E+01
   15.500   2.444E+01
   15.600   2.411E+01
   15.700   2.372E+01
   15.800   2.325E+01
   15.900   2.273E+01
   16.000   2.215E+01
   16.100   2.154E+01
   16.200   2.089E+01
   16.300   2.023E+01
   16.400   1.954E+01
   16.500   1.885E+01
   16.600   1.816E+01
   16.700   1.748E+01
   16.800   1.680E+01
   16.900   1.614E+01
   17.000   1.549E+01
   17.100   1.486E+01
   17.200   1.426E+01
   17.300   1.367E+01
   17.400   1.311E+01
   17.500   1.257E+01
   17.600   1.206E+01
   17.700   1.157E+01
   17.800   1.110E+01
   17.900   1.065E+01
   18.000   1.022E+01
   18.100   9.805E+00
   18.200   9.412E+00
   18.300   9.037E+00
   18.400   8.679E+00
   18.500   8.336E+00
   18.600   8.009E+00
   18.700   7.696E+00
   18.800   7.398E+00
   18.900   7.113E+00
   19.000   6.842E+00
   19.100   6.583E+00
   19.200   6.337E+00
   19.300   6.102E+00
   19.400   5.879E+00
   19.500   5.666E+00
   19.600   5.464E+00
   19.700   5.272E+00
   19.800   5.089E+00
   19.900   4.915E+00
   20.000   4.750E+00
   20.100   4.593E+00
   20.200   4.443E+00
   20.300   4.300E+00
   20.400   4.164E+00
   20.500   4.035E+00
   20.600   3.912E+00
   20.700   3.794E+00
   20.800   3.682E+00
   20.900   3.575E+00
   21.000   3.472E+00
   21.100   3.375E+00
   21.200   3.281E+00
   21.300   3.191E+00
   21.400   3.106E+00
   21.500   3.024E+00
   21.600   2.945E+00
   21.700   2.869E+00
   21.800   2.797E+00
   21.900   2.727E+00
   22.000   2.660E+00
   22.100   2.596E+00
   22.200   2.534E+00
   22.300   2.475E+00
   22.400   2.417E+00
   22.500   2.362E+00
   22.600   2.309E+00
   22.700   2.258E+00
   22.800   2.208E+00
   22.900   2.160E+00
   23.000   2.114E+00
   23.100   2.070E+00
   23.200   2.027E+00
   23.300   1.985E+00
   23.400   1.945E+00
   23.500   1.906E+00
   23.600   1.868E+00
   23.700   1.832E+00
   23.800   1.796E+00
   23.900   1.762E+00
   24.000   1.729E+00
   24.100   1.696E+00
   24.200   1.665E+00
   24.300   1.635E+00
   24.400   1.605E+00
   24.500   1.577E+00
   24.600   1.549E+00
   24.700   1.522E+00
   24.800   1.496E+00
   24.900   1.470E+00
   25.000   1.445E+00
   25.100   1.421E+00
   25.200   1.398E+00
   25.300   1.375E+00
   25.400   1.352E+00
   25.500   1.331E+00
   25.600   1.310E+00
   25.700   1.289E+00
   25.800   1.269E+00
   25.900   1.249E+00
   26.000   1.230E+00
   26.100   1.212E+00
   26.200   1.193E+00
   26.300   1.176E+00
   26.400   1.158E+00
   26.500   1.141E+00
   26.600   1.125E+00
   26.700   1.109E+00
   26.800   1.093E+00
   26.900   1.078E+00
   27.000   1.063E+00
   27.100   1.048E+00
   27.200   1.034E+00
   27.300   1.019E+00
   27.400   1.006E+00
   27.500   9.923E-01
   27.600   9.791E-01
   27.700   9.662E-01
   27.800   9.536E-01
   27.900   9.413E-01
   28.000   9.292E-01
   28.100   9.174E-01
   28.200   9.058E-01
   28.300   8.944E-01
   28.400   8.833E-01
   28.500   8.724E-01
   28.600   8.617E-01
   28.700   8.512E-01
   28.800   8.409E-01
   28.900   8.308E-01
   29.000   8.210E-01
   29.100   8.113E-01
   29.200   8.018E-01
   29.300   7.924E-01
   29.400   7.833E-01
   29.500   7.743E-01
   29.600   7.655E-01
   29.700   7.568E-01
   29.800   7.483E-01
   29.900   7.400E-01
   30.000   7.318E-01
 
 Z=  56 A= 136  D1M-QRPA
   E[MeV]   fQRPA[mb/MeV]
    0.100   8.906E-03
    0.200   1.745E-02
    0.300   2.180E-02
    0.400   2.463E-02
    0.500   2.698E-02
    0.600   2.923E-02
    0.700   3.146E-02
    0.800   3.373E-02
    0.900   3.603E-02
    1.000   3.835E-02
    1.100   4.069E-02
    1.200   4.304E-02
    1.300   4.541E-02
    1.400   4.781E-02
    1.500   5.025E-02
    1.600   5.273E-02
    1.700   5.527E-02
    1.800   5.789E-02
    1.900   6.059E-02
    2.000   6.341E-02
    2.100   6.635E-02
    2.200   6.943E-02
    2.300   7.266E-02
    2.400   7.606E-02
    2.500   7.964E-02
    2.600   8.342E-02
    2.700   8.741E-02
    2.800   9.161E-02
    2.900   9.606E-02
    3.000   1.007E-01
    3.100   1.057E-01
    3.200   1.109E-01
    3.300   1.163E-01
    3.400   1.221E-01
    3.500   1.281E-01
    3.600   1.344E-01
    3.700   1.410E-01
    3.800   1.480E-01
    3.900   1.552E-01
    4.000   1.628E-01
    4.100   1.707E-01
    4.200   1.790E-01
    4.300   1.876E-01
    4.400   1.966E-01
    4.500   2.060E-01
    4.600   2.158E-01
    4.700   2.260E-01
    4.800   2.367E-01
    4.900   2.479E-01
    5.000   2.595E-01
    5.100   2.716E-01
    5.200   2.843E-01
    5.300   2.975E-01
    5.400   3.113E-01
    5.500   3.257E-01
    5.600   3.408E-01
    5.700   3.565E-01
    5.800   3.729E-01
    5.900   3.900E-01
    6.000   4.079E-01
    6.100   4.266E-01
    6.200   4.462E-01
    6.300   4.666E-01
    6.400   4.879E-01
    6.500   5.102E-01
    6.600   5.336E-01
    6.700   5.580E-01
    6.800   5.835E-01
    6.900   6.103E-01
    7.000   6.383E-01
    7.100   6.677E-01
    7.200   6.984E-01
    7.300   7.306E-01
    7.400   7.644E-01
    7.500   7.999E-01
    7.600   8.371E-01
    7.700   8.761E-01
    7.800   9.171E-01
    7.900   9.601E-01
    8.000   1.005E+00
    8.100   1.053E+00
    8.200   1.103E+00
    8.300   1.155E+00
    8.400   1.210E+00
    8.500   1.268E+00
    8.600   1.328E+00
    8.700   1.392E+00
    8.800   1.459E+00
    8.900   1.529E+00
    9.000   1.603E+00
    9.100   1.681E+00
    9.200   1.763E+00
    9.300   1.849E+00
    9.400   1.939E+00
    9.500   2.035E+00
    9.600   2.135E+00
    9.700   2.241E+00
    9.800   2.352E+00
    9.900   2.469E+00
   10.000   2.593E+00
   10.100   2.723E+00
   10.200   2.859E+00
   10.300   3.003E+00
   10.400   3.155E+00
   10.500   3.314E+00
   10.600   3.482E+00
   10.700   3.659E+00
   10.800   3.846E+00
   10.900   4.042E+00
   11.000   4.249E+00
   11.100   4.467E+00
   11.200   4.697E+00
   11.300   4.940E+00
   11.400   5.196E+00
   11.500   5.466E+00
   11.600   5.751E+00
   11.700   6.051E+00
   11.800   6.368E+00
   11.900   6.703E+00
   12.000   7.055E+00
   12.100   7.427E+00
   12.200   7.819E+00
   12.300   8.233E+00
   12.400   8.671E+00
   12.500   9.134E+00
   12.600   9.625E+00
   12.700   1.014E+01
   12.800   1.070E+01
   12.900   1.128E+01
   13.000   1.190E+01
   13.100   1.256E+01
   13.200   1.326E+01
   13.300   1.399E+01
   13.400   1.477E+01
   13.500   1.558E+01
   13.600   1.642E+01
   13.700   1.729E+01
   13.800   1.818E+01
   13.900   1.908E+01
   14.000   1.998E+01
   14.100   2.086E+01
   14.200   2.171E+01
   14.300   2.251E+01
   14.400   2.324E+01
   14.500   2.389E+01
   14.600   2.444E+01
   14.700   2.487E+01
   14.800   2.518E+01
   14.900   2.535E+01
   15.000   2.539E+01
   15.100   2.530E+01
   15.200   2.508E+01
   15.300   2.474E+01
   15.400   2.430E+01
   15.500   2.377E+01
   15.600   2.317E+01
   15.700   2.250E+01
   15.800   2.179E+01
   15.900   2.105E+01
   16.000   2.029E+01
   16.100   1.952E+01
   16.200   1.876E+01
   16.300   1.800E+01
   16.400   1.727E+01
   16.500   1.655E+01
   16.600   1.586E+01
   16.700   1.520E+01
   16.800   1.456E+01
   16.900   1.396E+01
   17.000   1.338E+01
   17.100   1.284E+01
   17.200   1.232E+01
   17.300   1.183E+01
   17.400   1.137E+01
   17.500   1.093E+01
   17.600   1.052E+01
   17.700   1.012E+01
   17.800   9.747E+00
   17.900   9.390E+00
   18.000   9.048E+00
   18.100   8.720E+00
   18.200   8.406E+00
   18.300   8.104E+00
   18.400   7.813E+00
   18.500   7.532E+00
   18.600   7.262E+00
   18.700   7.002E+00
   18.800   6.751E+00
   18.900   6.509E+00
   19.000   6.276E+00
   19.100   6.053E+00
   19.200   5.838E+00
   19.300   5.632E+00
   19.400   5.435E+00
   19.500   5.246E+00
   19.600   5.065E+00
   19.700   4.893E+00
   19.800   4.728E+00
   19.900   4.571E+00
   20.000   4.421E+00
   20.100   4.278E+00
   20.200   4.141E+00
   20.300   4.011E+00
   20.400   3.887E+00
   20.500   3.769E+00
   20.600   3.656E+00
   20.700   3.548E+00
   20.800   3.445E+00
   20.900   3.346E+00
   21.000   3.252E+00
   21.100   3.162E+00
   21.200   3.076E+00
   21.300   2.994E+00
   21.400   2.915E+00
   21.500   2.839E+00
   21.600   2.766E+00
   21.700   2.697E+00
   21.800   2.630E+00
   21.900   2.565E+00
   22.000   2.504E+00
   22.100   2.444E+00
   22.200   2.387E+00
   22.300   2.332E+00
   22.400   2.279E+00
   22.500   2.228E+00
   22.600   2.179E+00
   22.700   2.131E+00
   22.800   2.085E+00
   22.900   2.041E+00
   23.000   1.998E+00
   23.100   1.957E+00
   23.200   1.917E+00
   23.300   1.879E+00
   23.400   1.841E+00
   23.500   1.805E+00
   23.600   1.770E+00
   23.700   1.736E+00
   23.800   1.703E+00
   23.900   1.671E+00
   24.000   1.640E+00
   24.100   1.610E+00
   24.200   1.581E+00
   24.300   1.553E+00
   24.400   1.525E+00
   24.500   1.499E+00
   24.600   1.473E+00
   24.700   1.447E+00
   24.800   1.423E+00
   24.900   1.399E+00
   25.000   1.376E+00
   25.100   1.353E+00
   25.200   1.331E+00
   25.300   1.310E+00
   25.400   1.289E+00
   25.500   1.269E+00
   25.600   1.249E+00
   25.700   1.230E+00
   25.800   1.211E+00
   25.900   1.192E+00
   26.000   1.174E+00
   26.100   1.157E+00
   26.200   1.140E+00
   26.300   1.123E+00
   26.400   1.107E+00
   26.500   1.091E+00
   26.600   1.076E+00
   26.700   1.060E+00
   26.800   1.046E+00
   26.900   1.031E+00
   27.000   1.017E+00
   27.100   1.003E+00
   27.200   9.896E-01
   27.300   9.764E-01
   27.400   9.634E-01
   27.500   9.508E-01
   27.600   9.383E-01
   27.700   9.262E-01
   27.800   9.143E-01
   27.900   9.026E-01
   28.000   8.912E-01
   28.100   8.800E-01
   28.200   8.691E-01
   28.300   8.584E-01
   28.400   8.478E-01
   28.500   8.375E-01
   28.600   8.274E-01
   28.700   8.175E-01
   28.800   8.078E-01
   28.900   7.982E-01
   29.000   7.889E-01
   29.100   7.797E-01
   29.200   7.707E-01
   29.300   7.618E-01
   29.400   7.532E-01
   29.500   7.447E-01
   29.600   7.363E-01
   29.700   7.281E-01
   29.800   7.200E-01
   29.900   7.121E-01
   30.000   7.043E-01
 
 Z=  56 A= 137  D1M-QRPA-Inter
 E[MeV]  fQRPA[mb/MeV]
    0.100   7.797E-04
    0.200   2.183E-03
    0.300   3.661E-03
    0.400   5.190E-03
    0.500   6.794E-03
    0.600   8.488E-03
    0.700   1.028E-02
    0.800   1.217E-02
    0.900   1.417E-02
    1.000   1.625E-02
    1.100   1.843E-02
    1.200   2.071E-02
    1.300   2.307E-02
    1.400   2.552E-02
    1.500   2.807E-02
    1.600   3.071E-02
    1.700   3.346E-02
    1.800   3.632E-02
    1.900   3.929E-02
    2.000   4.239E-02
    2.100   4.561E-02
    2.200   4.898E-02
    2.300   5.249E-02
    2.400   5.617E-02
    2.500   6.001E-02
    2.600   6.403E-02
    2.700   6.823E-02
    2.800   7.263E-02
    2.900   7.724E-02
    3.000   8.206E-02
    3.100   8.711E-02
    3.200   9.238E-02
    3.300   9.790E-02
    3.400   1.037E-01
    3.500   1.097E-01
    3.600   1.160E-01
    3.700   1.225E-01
    3.800   1.294E-01
    3.900   1.365E-01
    4.000   1.440E-01
    4.100   1.517E-01
    4.200   1.598E-01
    4.300   1.682E-01
    4.400   1.770E-01
    4.500   1.862E-01
    4.600   1.957E-01
    4.700   2.056E-01
    4.800   2.160E-01
    4.900   2.268E-01
    5.000   2.380E-01
    5.100   2.497E-01
    5.200   2.619E-01
    5.300   2.746E-01
    5.400   2.879E-01
    5.500   3.017E-01
    5.600   3.162E-01
    5.700   3.312E-01
    5.800   3.469E-01
    5.900   3.633E-01
    6.000   3.803E-01
    6.100   3.982E-01
    6.200   4.168E-01
    6.300   4.362E-01
    6.400   4.565E-01
    6.500   4.776E-01
    6.600   4.998E-01
    6.700   5.229E-01
    6.800   5.471E-01
    6.900   5.723E-01
    7.000   5.988E-01
    7.100   6.265E-01
    7.200   6.554E-01
    7.300   6.858E-01
    7.400   7.175E-01
    7.500   7.508E-01
    7.600   7.857E-01
    7.700   8.223E-01
    7.800   8.607E-01
    7.900   9.009E-01
    8.000   9.432E-01
    8.100   9.875E-01
    8.200   1.034E+00
    8.300   1.083E+00
    8.400   1.134E+00
    8.500   1.188E+00
    8.600   1.244E+00
    8.700   1.304E+00
    8.800   1.366E+00
    8.900   1.432E+00
    9.000   1.501E+00
    9.100   1.573E+00
    9.200   1.649E+00
    9.300   1.729E+00
    9.400   1.814E+00
    9.500   1.903E+00
    9.600   1.996E+00
    9.700   2.095E+00
    9.800   2.198E+00
    9.900   2.307E+00
   10.000   2.422E+00
   10.100   2.542E+00
   10.200   2.669E+00
   10.300   2.802E+00
   10.400   2.942E+00
   10.500   3.089E+00
   10.600   3.244E+00
   10.700   3.407E+00
   10.800   3.577E+00
   10.900   3.757E+00
   11.000   3.946E+00
   11.100   4.145E+00
   11.200   4.354E+00
   11.300   4.574E+00
   11.400   4.805E+00
   11.500   5.049E+00
   11.600   5.305E+00
   11.700   5.574E+00
   11.800   5.857E+00
   11.900   6.155E+00
   12.000   6.469E+00
   12.100   6.800E+00
   12.200   7.149E+00
   12.300   7.516E+00
   12.400   7.905E+00
   12.500   8.315E+00
   12.600   8.749E+00
   12.700   9.209E+00
   12.800   9.697E+00
   12.900   1.021E+01
   13.000   1.076E+01
   13.100   1.134E+01
   13.200   1.196E+01
   13.300   1.261E+01
   13.400   1.330E+01
   13.500   1.402E+01
   13.600   1.477E+01
   13.700   1.555E+01
   13.800   1.636E+01
   13.900   1.718E+01
   14.000   1.801E+01
   14.100   1.884E+01
   14.200   1.965E+01
   14.300   2.044E+01
   14.400   2.119E+01
   14.500   2.188E+01
   14.600   2.250E+01
   14.700   2.304E+01
   14.800   2.349E+01
   14.900   2.383E+01
   15.000   2.406E+01
   15.100   2.418E+01
   15.200   2.418E+01
   15.300   2.408E+01
   15.400   2.387E+01
   15.500   2.356E+01
   15.600   2.316E+01
   15.700   2.268E+01
   15.800   2.214E+01
   15.900   2.153E+01
   16.000   2.089E+01
   16.100   2.021E+01
   16.200   1.951E+01
   16.300   1.879E+01
   16.400   1.808E+01
   16.500   1.737E+01
   16.600   1.667E+01
   16.700   1.599E+01
   16.800   1.533E+01
   16.900   1.470E+01
   17.000   1.410E+01
   17.100   1.352E+01
   17.200   1.297E+01
   17.300   1.245E+01
   17.400   1.195E+01
   17.500   1.149E+01
   17.600   1.105E+01
   17.700   1.063E+01
   17.800   1.024E+01
   17.900   9.868E+00
   18.000   9.516E+00
   18.100   9.180E+00
   18.200   8.861E+00
   18.300   8.555E+00
   18.400   8.262E+00
   18.500   7.980E+00
   18.600   7.709E+00
   18.700   7.447E+00
   18.800   7.193E+00
   18.900   6.948E+00
   19.000   6.711E+00
   19.100   6.481E+00
   19.200   6.259E+00
   19.300   6.044E+00
   19.400   5.836E+00
   19.500   5.636E+00
   19.600   5.443E+00
   19.700   5.257E+00
   19.800   5.078E+00
   19.900   4.907E+00
   20.000   4.743E+00
   20.100   4.585E+00
   20.200   4.434E+00
   20.300   4.290E+00
   20.400   4.152E+00
   20.500   4.020E+00
   20.600   3.893E+00
   20.700   3.773E+00
   20.800   3.658E+00
   20.900   3.548E+00
   21.000   3.442E+00
   21.100   3.342E+00
   21.200   3.246E+00
   21.300   3.154E+00
   21.400   3.066E+00
   21.500   2.982E+00
   21.600   2.902E+00
   21.700   2.825E+00
   21.800   2.751E+00
   21.900   2.680E+00
   22.000   2.612E+00
   22.100   2.547E+00
   22.200   2.484E+00
   22.300   2.424E+00
   22.400   2.366E+00
   22.500   2.311E+00
   22.600   2.257E+00
   22.700   2.206E+00
   22.800   2.156E+00
   22.900   2.108E+00
   23.000   2.062E+00
   23.100   2.018E+00
   23.200   1.975E+00
   23.300   1.933E+00
   23.400   1.893E+00
   23.500   1.855E+00
   23.600   1.817E+00
   23.700   1.781E+00
   23.800   1.746E+00
   23.900   1.712E+00
   24.000   1.679E+00
   24.100   1.647E+00
   24.200   1.616E+00
   24.300   1.587E+00
   24.400   1.557E+00
   24.500   1.529E+00
   24.600   1.502E+00
   24.700   1.475E+00
   24.800   1.450E+00
   24.900   1.425E+00
   25.000   1.400E+00
   25.100   1.376E+00
   25.200   1.353E+00
   25.300   1.331E+00
   25.400   1.309E+00
   25.500   1.288E+00
   25.600   1.267E+00
   25.700   1.247E+00
   25.800   1.228E+00
   25.900   1.208E+00
   26.000   1.190E+00
   26.100   1.172E+00
   26.200   1.154E+00
   26.300   1.137E+00
   26.400   1.120E+00
   26.500   1.103E+00
   26.600   1.087E+00
   26.700   1.071E+00
   26.800   1.056E+00
   26.900   1.041E+00
   27.000   1.027E+00
   27.100   1.012E+00
   27.200   9.983E-01
   27.300   9.846E-01
   27.400   9.712E-01
   27.500   9.582E-01
   27.600   9.454E-01
   27.700   9.329E-01
   27.800   9.206E-01
   27.900   9.087E-01
   28.000   8.969E-01
   28.100   8.854E-01
   28.200   8.742E-01
   28.300   8.632E-01
   28.400   8.524E-01
   28.500   8.418E-01
   28.600   8.314E-01
   28.700   8.213E-01
   28.800   8.113E-01
   28.900   8.016E-01
   29.000   7.920E-01
   29.100   7.826E-01
   29.200   7.734E-01
   29.300   7.644E-01
   29.400   7.555E-01
   29.500   7.468E-01
   29.600   7.383E-01
   29.700   7.299E-01
   29.800   7.217E-01
   29.900   7.136E-01
   30.000   7.057E-01
 
 Z=  56 A= 138  D1M-QRPA
   E[MeV]   fQRPA[mb/MeV]
    0.100   6.801E-05
    0.200   2.721E-04
    0.300   6.126E-04
    0.400   1.090E-03
    0.500   1.704E-03
    0.600   2.456E-03
    0.700   3.347E-03
    0.800   4.378E-03
    0.900   5.550E-03
    1.000   6.863E-03
    1.100   8.321E-03
    1.200   9.923E-03
    1.300   1.167E-02
    1.400   1.357E-02
    1.500   1.562E-02
    1.600   1.783E-02
    1.700   2.019E-02
    1.800   2.270E-02
    1.900   2.538E-02
    2.000   2.823E-02
    2.100   3.124E-02
    2.200   3.443E-02
    2.300   3.779E-02
    2.400   4.133E-02
    2.500   4.505E-02
    2.600   4.896E-02
    2.700   5.307E-02
    2.800   5.738E-02
    2.900   6.188E-02
    3.000   6.660E-02
    3.100   7.154E-02
    3.200   7.669E-02
    3.300   8.208E-02
    3.400   8.770E-02
    3.500   9.356E-02
    3.600   9.968E-02
    3.700   1.061E-01
    3.800   1.127E-01
    3.900   1.196E-01
    4.000   1.268E-01
    4.100   1.343E-01
    4.200   1.422E-01
    4.300   1.503E-01
    4.400   1.588E-01
    4.500   1.676E-01
    4.600   1.768E-01
    4.700   1.864E-01
    4.800   1.963E-01
    4.900   2.067E-01
    5.000   2.175E-01
    5.100   2.287E-01
    5.200   2.404E-01
    5.300   2.526E-01
    5.400   2.653E-01
    5.500   2.785E-01
    5.600   2.922E-01
    5.700   3.066E-01
    5.800   3.215E-01
    5.900   3.371E-01
    6.000   3.533E-01
    6.100   3.702E-01
    6.200   3.879E-01
    6.300   4.063E-01
    6.400   4.255E-01
    6.500   4.455E-01
    6.600   4.664E-01
    6.700   4.882E-01
    6.800   5.110E-01
    6.900   5.348E-01
    7.000   5.596E-01
    7.100   5.856E-01
    7.200   6.128E-01
    7.300   6.413E-01
    7.400   6.710E-01
    7.500   7.022E-01
    7.600   7.348E-01
    7.700   7.690E-01
    7.800   8.048E-01
    7.900   8.423E-01
    8.000   8.816E-01
    8.100   9.229E-01
    8.200   9.662E-01
    8.300   1.012E+00
    8.400   1.059E+00
    8.500   1.109E+00
    8.600   1.162E+00
    8.700   1.217E+00
    8.800   1.275E+00
    8.900   1.336E+00
    9.000   1.400E+00
    9.100   1.467E+00
    9.200   1.538E+00
    9.300   1.612E+00
    9.400   1.690E+00
    9.500   1.773E+00
    9.600   1.860E+00
    9.700   1.951E+00
    9.800   2.047E+00
    9.900   2.148E+00
   10.000   2.254E+00
   10.100   2.365E+00
   10.200   2.482E+00
   10.300   2.605E+00
   10.400   2.734E+00
   10.500   2.869E+00
   10.600   3.011E+00
   10.700   3.160E+00
   10.800   3.316E+00
   10.900   3.480E+00
   11.000   3.652E+00
   11.100   3.832E+00
   11.200   4.021E+00
   11.300   4.220E+00
   11.400   4.428E+00
   11.500   4.646E+00
   11.600   4.875E+00
   11.700   5.115E+00
   11.800   5.367E+00
   11.900   5.632E+00
   12.000   5.910E+00
   12.100   6.203E+00
   12.200   6.512E+00
   12.300   6.837E+00
   12.400   7.180E+00
   12.500   7.542E+00
   12.600   7.924E+00
   12.700   8.329E+00
   12.800   8.758E+00
   12.900   9.212E+00
   13.000   9.694E+00
   13.100   1.021E+01
   13.200   1.075E+01
   13.300   1.132E+01
   13.400   1.193E+01
   13.500   1.256E+01
   13.600   1.323E+01
   13.700   1.393E+01
   13.800   1.466E+01
   13.900   1.541E+01
   14.000   1.618E+01
   14.100   1.695E+01
   14.200   1.773E+01
   14.300   1.850E+01
   14.400   1.925E+01
   14.500   1.997E+01
   14.600   2.064E+01
   14.700   2.127E+01
   14.800   2.183E+01
   14.900   2.231E+01
   15.000   2.271E+01
   15.100   2.302E+01
   15.200   2.323E+01
   15.300   2.335E+01
   15.400   2.336E+01
   15.500   2.326E+01
   15.600   2.307E+01
   15.700   2.278E+01
   15.800   2.240E+01
   15.900   2.195E+01
   16.000   2.142E+01
   16.100   2.084E+01
   16.200   2.021E+01
   16.300   1.955E+01
   16.400   1.886E+01
   16.500   1.816E+01
   16.600   1.746E+01
   16.700   1.677E+01
   16.800   1.609E+01
   16.900   1.543E+01
   17.000   1.479E+01
   17.100   1.418E+01
   17.200   1.360E+01
   17.300   1.304E+01
   17.400   1.252E+01
   17.500   1.203E+01
   17.600   1.156E+01
   17.700   1.113E+01
   17.800   1.072E+01
   17.900   1.033E+01
   18.000   9.971E+00
   18.100   9.629E+00
   18.200   9.306E+00
   18.300   8.998E+00
   18.400   8.705E+00
   18.500   8.424E+00
   18.600   8.153E+00
   18.700   7.891E+00
   18.800   7.637E+00
   18.900   7.390E+00
   19.000   7.149E+00
   19.100   6.914E+00
   19.200   6.685E+00
   19.300   6.461E+00
   19.400   6.244E+00
   19.500   6.032E+00
   19.600   5.827E+00
   19.700   5.627E+00
   19.800   5.435E+00
   19.900   5.249E+00
   20.000   5.069E+00
   20.100   4.896E+00
   20.200   4.730E+00
   20.300   4.571E+00
   20.400   4.418E+00
   20.500   4.271E+00
   20.600   4.131E+00
   20.700   3.997E+00
   20.800   3.869E+00
   20.900   3.747E+00
   21.000   3.630E+00
   21.100   3.519E+00
   21.200   3.412E+00
   21.300   3.311E+00
   21.400   3.214E+00
   21.500   3.121E+00
   21.600   3.032E+00
   21.700   2.948E+00
   21.800   2.867E+00
   21.900   2.789E+00
   22.000   2.715E+00
   22.100   2.644E+00
   22.200   2.576E+00
   22.300   2.511E+00
   22.400   2.448E+00
   22.500   2.388E+00
   22.600   2.330E+00
   22.700   2.274E+00
   22.800   2.221E+00
   22.900   2.170E+00
   23.000   2.120E+00
   23.100   2.073E+00
   23.200   2.027E+00
   23.300   1.983E+00
   23.400   1.940E+00
   23.500   1.899E+00
   23.600   1.859E+00
   23.700   1.820E+00
   23.800   1.783E+00
   23.900   1.747E+00
   24.000   1.713E+00
   24.100   1.679E+00
   24.200   1.647E+00
   24.300   1.615E+00
   24.400   1.584E+00
   24.500   1.555E+00
   24.600   1.526E+00
   24.700   1.498E+00
   24.800   1.471E+00
   24.900   1.445E+00
   25.000   1.420E+00
   25.100   1.395E+00
   25.200   1.371E+00
   25.300   1.348E+00
   25.400   1.325E+00
   25.500   1.303E+00
   25.600   1.281E+00
   25.700   1.260E+00
   25.800   1.240E+00
   25.900   1.220E+00
   26.000   1.201E+00
   26.100   1.182E+00
   26.200   1.164E+00
   26.300   1.146E+00
   26.400   1.128E+00
   26.500   1.111E+00
   26.600   1.095E+00
   26.700   1.079E+00
   26.800   1.063E+00
   26.900   1.047E+00
   27.000   1.032E+00
   27.100   1.018E+00
   27.200   1.003E+00
   27.300   9.892E-01
   27.400   9.755E-01
   27.500   9.621E-01
   27.600   9.490E-01
   27.700   9.361E-01
   27.800   9.236E-01
   27.900   9.113E-01
   28.000   8.993E-01
   28.100   8.876E-01
   28.200   8.761E-01
   28.300   8.648E-01
   28.400   8.538E-01
   28.500   8.430E-01
   28.600   8.324E-01
   28.700   8.221E-01
   28.800   8.119E-01
   28.900   8.020E-01
   29.000   7.922E-01
   29.100   7.827E-01
   29.200   7.733E-01
   29.300   7.641E-01
   29.400   7.551E-01
   29.500   7.462E-01
   29.600   7.375E-01
   29.700   7.290E-01
   29.800   7.207E-01
   29.900   7.125E-01
   30.000   7.044E-01
 
 Z=  56 A= 139  D1M-QRPA-Inter
 E[MeV]  fQRPA[mb/MeV]
    0.100   8.535E-05
    0.200   3.415E-04
    0.300   7.688E-04
    0.400   1.368E-03
    0.500   2.139E-03
    0.600   3.083E-03
    0.700   4.202E-03
    0.800   5.497E-03
    0.900   6.968E-03
    1.000   8.619E-03
    1.100   1.045E-02
    1.200   1.247E-02
    1.300   1.467E-02
    1.400   1.706E-02
    1.500   1.964E-02
    1.600   2.241E-02
    1.700   2.539E-02
    1.800   2.856E-02
    1.900   3.194E-02
    2.000   3.553E-02
    2.100   3.934E-02
    2.200   4.336E-02
    2.300   4.761E-02
    2.400   5.209E-02
    2.500   5.681E-02
    2.600   6.177E-02
    2.700   6.698E-02
    2.800   7.245E-02
    2.900   7.818E-02
    3.000   8.418E-02
    3.100   9.046E-02
    3.200   9.703E-02
    3.300   1.039E-01
    3.400   1.111E-01
    3.500   1.186E-01
    3.600   1.264E-01
    3.700   1.346E-01
    3.800   1.431E-01
    3.900   1.520E-01
    4.000   1.613E-01
    4.100   1.710E-01
    4.200   1.811E-01
    4.300   1.916E-01
    4.400   2.026E-01
    4.500   2.140E-01
    4.600   2.260E-01
    4.700   2.384E-01
    4.800   2.514E-01
    4.900   2.649E-01
    5.000   2.790E-01
    5.100   2.938E-01
    5.200   3.091E-01
    5.300   3.251E-01
    5.400   3.419E-01
    5.500   3.593E-01
    5.600   3.775E-01
    5.700   3.965E-01
    5.800   4.164E-01
    5.900   4.371E-01
    6.000   4.588E-01
    6.100   4.814E-01
    6.200   5.051E-01
    6.300   5.298E-01
    6.400   5.556E-01
    6.500   5.825E-01
    6.600   6.107E-01
    6.700   6.402E-01
    6.800   6.710E-01
    6.900   7.032E-01
    7.000   7.368E-01
    7.100   7.720E-01
    7.200   8.088E-01
    7.300   8.472E-01
    7.400   8.874E-01
    7.500   9.294E-01
    7.600   9.733E-01
    7.700   1.019E+00
    7.800   1.067E+00
    7.900   1.117E+00
    8.000   1.170E+00
    8.100   1.225E+00
    8.200   1.282E+00
    8.300   1.342E+00
    8.400   1.405E+00
    8.500   1.470E+00
    8.600   1.539E+00
    8.700   1.611E+00
    8.800   1.686E+00
    8.900   1.765E+00
    9.000   1.847E+00
    9.100   1.934E+00
    9.200   2.024E+00
    9.300   2.118E+00
    9.400   2.217E+00
    9.500   2.320E+00
    9.600   2.429E+00
    9.700   2.542E+00
    9.800   2.660E+00
    9.900   2.784E+00
   10.000   2.913E+00
   10.100   3.048E+00
   10.200   3.189E+00
   10.300   3.336E+00
   10.400   3.491E+00
   10.500   3.652E+00
   10.600   3.820E+00
   10.700   3.997E+00
   10.800   4.181E+00
   10.900   4.374E+00
   11.000   4.576E+00
   11.100   4.788E+00
   11.200   5.010E+00
   11.300   5.243E+00
   11.400   5.486E+00
   11.500   5.742E+00
   11.600   6.010E+00
   11.700   6.292E+00
   11.800   6.588E+00
   11.900   6.899E+00
   12.000   7.227E+00
   12.100   7.571E+00
   12.200   7.934E+00
   12.300   8.315E+00
   12.400   8.717E+00
   12.500   9.140E+00
   12.600   9.585E+00
   12.700   1.005E+01
   12.800   1.054E+01
   12.900   1.106E+01
   13.000   1.160E+01
   13.100   1.216E+01
   13.200   1.275E+01
   13.300   1.336E+01
   13.400   1.398E+01
   13.500   1.463E+01
   13.600   1.528E+01
   13.700   1.595E+01
   13.800   1.661E+01
   13.900   1.728E+01
   14.000   1.793E+01
   14.100   1.856E+01
   14.200   1.917E+01
   14.300   1.973E+01
   14.400   2.025E+01
   14.500   2.072E+01
   14.600   2.113E+01
   14.700   2.146E+01
   14.800   2.173E+01
   14.900   2.191E+01
   15.000   2.202E+01
   15.100   2.205E+01
   15.200   2.199E+01
   15.300   2.186E+01
   15.400   2.165E+01
   15.500   2.138E+01
   15.600   2.103E+01
   15.700   2.063E+01
   15.800   2.018E+01
   15.900   1.968E+01
   16.000   1.915E+01
   16.100   1.859E+01
   16.200   1.801E+01
   16.300   1.742E+01
   16.400   1.682E+01
   16.500   1.622E+01
   16.600   1.563E+01
   16.700   1.505E+01
   16.800   1.449E+01
   16.900   1.394E+01
   17.000   1.341E+01
   17.100   1.290E+01
   17.200   1.241E+01
   17.300   1.194E+01
   17.400   1.150E+01
   17.500   1.107E+01
   17.600   1.067E+01
   17.700   1.029E+01
   17.800   9.927E+00
   17.900   9.583E+00
   18.000   9.254E+00
   18.100   8.942E+00
   18.200   8.643E+00
   18.300   8.357E+00
   18.400   8.083E+00
   18.500   7.820E+00
   18.600   7.566E+00
   18.700   7.321E+00
   18.800   7.084E+00
   18.900   6.855E+00
   19.000   6.633E+00
   19.100   6.418E+00
   19.200   6.209E+00
   19.300   6.008E+00
   19.400   5.813E+00
   19.500   5.625E+00
   19.600   5.443E+00
   19.700   5.267E+00
   19.800   5.098E+00
   19.900   4.936E+00
   20.000   4.779E+00
   20.100   4.629E+00
   20.200   4.485E+00
   20.300   4.346E+00
   20.400   4.213E+00
   20.500   4.086E+00
   20.600   3.964E+00
   20.700   3.847E+00
   20.800   3.735E+00
   20.900   3.628E+00
   21.000   3.525E+00
   21.100   3.426E+00
   21.200   3.332E+00
   21.300   3.242E+00
   21.400   3.155E+00
   21.500   3.072E+00
   21.600   2.993E+00
   21.700   2.916E+00
   21.800   2.843E+00
   21.900   2.773E+00
   22.000   2.705E+00
   22.100   2.640E+00
   22.200   2.577E+00
   22.300   2.517E+00
   22.400   2.459E+00
   22.500   2.403E+00
   22.600   2.349E+00
   22.700   2.298E+00
   22.800   2.248E+00
   22.900   2.199E+00
   23.000   2.153E+00
   23.100   2.108E+00
   23.200   2.064E+00
   23.300   2.022E+00
   23.400   1.982E+00
   23.500   1.942E+00
   23.600   1.904E+00
   23.700   1.867E+00
   23.800   1.832E+00
   23.900   1.797E+00
   24.000   1.763E+00
   24.100   1.731E+00
   24.200   1.699E+00
   24.300   1.669E+00
   24.400   1.639E+00
   24.500   1.610E+00
   24.600   1.582E+00
   24.700   1.555E+00
   24.800   1.528E+00
   24.900   1.502E+00
   25.000   1.477E+00
   25.100   1.453E+00
   25.200   1.429E+00
   25.300   1.406E+00
   25.400   1.384E+00
   25.500   1.362E+00
   25.600   1.340E+00
   25.700   1.319E+00
   25.800   1.299E+00
   25.900   1.279E+00
   26.000   1.260E+00
   26.100   1.241E+00
   26.200   1.223E+00
   26.300   1.205E+00
   26.400   1.187E+00
   26.500   1.170E+00
   26.600   1.154E+00
   26.700   1.137E+00
   26.800   1.121E+00
   26.900   1.106E+00
   27.000   1.090E+00
   27.100   1.076E+00
   27.200   1.061E+00
   27.300   1.047E+00
   27.400   1.033E+00
   27.500   1.019E+00
   27.600   1.006E+00
   27.700   9.927E-01
   27.800   9.799E-01
   27.900   9.674E-01
   28.000   9.551E-01
   28.100   9.431E-01
   28.200   9.314E-01
   28.300   9.198E-01
   28.400   9.085E-01
   28.500   8.975E-01
   28.600   8.866E-01
   28.700   8.759E-01
   28.800   8.655E-01
   28.900   8.553E-01
   29.000   8.452E-01
   29.100   8.354E-01
   29.200   8.257E-01
   29.300   8.162E-01
   29.400   8.069E-01
   29.500   7.977E-01
   29.600   7.888E-01
   29.700   7.800E-01
   29.800   7.713E-01
   29.900   7.628E-01
   30.000   7.545E-01
 
 Z=  56 A= 140  D1M-QRPA
   E[MeV]   fQRPA[mb/MeV]
    0.100   1.059E-04
    0.200   4.238E-04
    0.300   9.540E-04
    0.400   1.697E-03
    0.500   2.654E-03
    0.600   3.827E-03
    0.700   5.216E-03
    0.800   6.824E-03
    0.900   8.652E-03
    1.000   1.070E-02
    1.100   1.298E-02
    1.200   1.549E-02
    1.300   1.822E-02
    1.400   2.120E-02
    1.500   2.441E-02
    1.600   2.786E-02
    1.700   3.157E-02
    1.800   3.553E-02
    1.900   3.974E-02
    2.000   4.423E-02
    2.100   4.898E-02
    2.200   5.401E-02
    2.300   5.932E-02
    2.400   6.493E-02
    2.500   7.084E-02
    2.600   7.705E-02
    2.700   8.359E-02
    2.800   9.045E-02
    2.900   9.765E-02
    3.000   1.052E-01
    3.100   1.131E-01
    3.200   1.214E-01
    3.300   1.301E-01
    3.400   1.391E-01
    3.500   1.486E-01
    3.600   1.585E-01
    3.700   1.689E-01
    3.800   1.797E-01
    3.900   1.910E-01
    4.000   2.029E-01
    4.100   2.152E-01
    4.200   2.281E-01
    4.300   2.415E-01
    4.400   2.556E-01
    4.500   2.703E-01
    4.600   2.856E-01
    4.700   3.016E-01
    4.800   3.183E-01
    4.900   3.358E-01
    5.000   3.540E-01
    5.100   3.731E-01
    5.200   3.931E-01
    5.300   4.139E-01
    5.400   4.357E-01
    5.500   4.585E-01
    5.600   4.823E-01
    5.700   5.072E-01
    5.800   5.333E-01
    5.900   5.606E-01
    6.000   5.891E-01
    6.100   6.190E-01
    6.200   6.503E-01
    6.300   6.831E-01
    6.400   7.174E-01
    6.500   7.533E-01
    6.600   7.908E-01
    6.700   8.301E-01
    6.800   8.713E-01
    6.900   9.143E-01
    7.000   9.593E-01
    7.100   1.006E+00
    7.200   1.055E+00
    7.300   1.107E+00
    7.400   1.160E+00
    7.500   1.216E+00
    7.600   1.275E+00
    7.700   1.336E+00
    7.800   1.399E+00
    7.900   1.466E+00
    8.000   1.535E+00
    8.100   1.607E+00
    8.200   1.682E+00
    8.300   1.761E+00
    8.400   1.842E+00
    8.500   1.928E+00
    8.600   2.016E+00
    8.700   2.109E+00
    8.800   2.206E+00
    8.900   2.306E+00
    9.000   2.411E+00
    9.100   2.520E+00
    9.200   2.634E+00
    9.300   2.752E+00
    9.400   2.875E+00
    9.500   3.003E+00
    9.600   3.136E+00
    9.700   3.274E+00
    9.800   3.418E+00
    9.900   3.567E+00
   10.000   3.722E+00
   10.100   3.883E+00
   10.200   4.051E+00
   10.300   4.226E+00
   10.400   4.407E+00
   10.500   4.596E+00
   10.600   4.793E+00
   10.700   4.999E+00
   10.800   5.213E+00
   10.900   5.437E+00
   11.000   5.671E+00
   11.100   5.916E+00
   11.200   6.172E+00
   11.300   6.441E+00
   11.400   6.722E+00
   11.500   7.017E+00
   11.600   7.328E+00
   11.700   7.654E+00
   11.800   7.996E+00
   11.900   8.357E+00
   12.000   8.737E+00
   12.100   9.137E+00
   12.200   9.558E+00
   12.300   1.000E+01
   12.400   1.047E+01
   12.500   1.095E+01
   12.600   1.146E+01
   12.700   1.200E+01
   12.800   1.255E+01
   12.900   1.313E+01
   13.000   1.372E+01
   13.100   1.433E+01
   13.200   1.495E+01
   13.300   1.558E+01
   13.400   1.621E+01
   13.500   1.684E+01
   13.600   1.745E+01
   13.700   1.805E+01
   13.800   1.862E+01
   13.900   1.916E+01
   14.000   1.965E+01
   14.100   2.010E+01
   14.200   2.049E+01
   14.300   2.081E+01
   14.400   2.107E+01
   14.500   2.126E+01
   14.600   2.138E+01
   14.700   2.142E+01
   14.800   2.139E+01
   14.900   2.128E+01
   15.000   2.111E+01
   15.100   2.088E+01
   15.200   2.059E+01
   15.300   2.024E+01
   15.400   1.985E+01
   15.500   1.942E+01
   15.600   1.896E+01
   15.700   1.848E+01
   15.800   1.797E+01
   15.900   1.745E+01
   16.000   1.693E+01
   16.100   1.640E+01
   16.200   1.587E+01
   16.300   1.535E+01
   16.400   1.484E+01
   16.500   1.433E+01
   16.600   1.384E+01
   16.700   1.336E+01
   16.800   1.290E+01
   16.900   1.245E+01
   17.000   1.201E+01
   17.100   1.160E+01
   17.200   1.120E+01
   17.300   1.081E+01
   17.400   1.044E+01
   17.500   1.008E+01
   17.600   9.738E+00
   17.700   9.408E+00
   17.800   9.091E+00
   17.900   8.786E+00
   18.000   8.493E+00
   18.100   8.210E+00
   18.200   7.937E+00
   18.300   7.675E+00
   18.400   7.422E+00
   18.500   7.177E+00
   18.600   6.942E+00
   18.700   6.715E+00
   18.800   6.497E+00
   18.900   6.287E+00
   19.000   6.085E+00
   19.100   5.890E+00
   19.200   5.703E+00
   19.300   5.524E+00
   19.400   5.351E+00
   19.500   5.186E+00
   19.600   5.027E+00
   19.700   4.875E+00
   19.800   4.729E+00
   19.900   4.590E+00
   20.000   4.456E+00
   20.100   4.327E+00
   20.200   4.204E+00
   20.300   4.086E+00
   20.400   3.973E+00
   20.500   3.864E+00
   20.600   3.760E+00
   20.700   3.660E+00
   20.800   3.564E+00
   20.900   3.472E+00
   21.000   3.384E+00
   21.100   3.299E+00
   21.200   3.217E+00
   21.300   3.139E+00
   21.400   3.063E+00
   21.500   2.990E+00
   21.600   2.920E+00
   21.700   2.853E+00
   21.800   2.788E+00
   21.900   2.725E+00
   22.000   2.664E+00
   22.100   2.606E+00
   22.200   2.550E+00
   22.300   2.495E+00
   22.400   2.443E+00
   22.500   2.392E+00
   22.600   2.343E+00
   22.700   2.295E+00
   22.800   2.249E+00
   22.900   2.204E+00
   23.000   2.161E+00
   23.100   2.119E+00
   23.200   2.079E+00
   23.300   2.040E+00
   23.400   2.002E+00
   23.500   1.965E+00
   23.600   1.929E+00
   23.700   1.894E+00
   23.800   1.860E+00
   23.900   1.827E+00
   24.000   1.795E+00
   24.100   1.764E+00
   24.200   1.734E+00
   24.300   1.705E+00
   24.400   1.676E+00
   24.500   1.648E+00
   24.600   1.621E+00
   24.700   1.595E+00
   24.800   1.569E+00
   24.900   1.544E+00
   25.000   1.520E+00
   25.100   1.496E+00
   25.200   1.473E+00
   25.300   1.451E+00
   25.400   1.429E+00
   25.500   1.407E+00
   25.600   1.386E+00
   25.700   1.366E+00
   25.800   1.346E+00
   25.900   1.326E+00
   26.000   1.307E+00
   26.100   1.289E+00
   26.200   1.270E+00
   26.300   1.253E+00
   26.400   1.235E+00
   26.500   1.218E+00
   26.600   1.202E+00
   26.700   1.186E+00
   26.800   1.170E+00
   26.900   1.154E+00
   27.000   1.139E+00
   27.100   1.124E+00
   27.200   1.109E+00
   27.300   1.095E+00
   27.400   1.081E+00
   27.500   1.067E+00
   27.600   1.054E+00
   27.700   1.041E+00
   27.800   1.028E+00
   27.900   1.015E+00
   28.000   1.003E+00
   28.100   9.909E-01
   28.200   9.790E-01
   28.300   9.674E-01
   28.400   9.559E-01
   28.500   9.447E-01
   28.600   9.337E-01
   28.700   9.229E-01
   28.800   9.123E-01
   28.900   9.019E-01
   29.000   8.917E-01
   29.100   8.816E-01
   29.200   8.718E-01
   29.300   8.621E-01
   29.400   8.526E-01
   29.500   8.433E-01
   29.600   8.341E-01
   29.700   8.251E-01
   29.800   8.163E-01
   29.900   8.076E-01
   30.000   7.990E-01
 
 Z=  56 A= 141  D1M-QRPA-Inter
 E[MeV]  fQRPA[mb/MeV]
    0.100   1.247E-04
    0.200   4.989E-04
    0.300   1.123E-03
    0.400   1.998E-03
    0.500   3.125E-03
    0.600   4.505E-03
    0.700   6.141E-03
    0.800   8.033E-03
    0.900   1.019E-02
    1.000   1.260E-02
    1.100   1.528E-02
    1.200   1.823E-02
    1.300   2.145E-02
    1.400   2.494E-02
    1.500   2.872E-02
    1.600   3.278E-02
    1.700   3.713E-02
    1.800   4.177E-02
    1.900   4.672E-02
    2.000   5.197E-02
    2.100   5.753E-02
    2.200   6.341E-02
    2.300   6.962E-02
    2.400   7.616E-02
    2.500   8.304E-02
    2.600   9.027E-02
    2.700   9.786E-02
    2.800   1.058E-01
    2.900   1.142E-01
    3.000   1.229E-01
    3.100   1.320E-01
    3.200   1.416E-01
    3.300   1.516E-01
    3.400   1.620E-01
    3.500   1.729E-01
    3.600   1.843E-01
    3.700   1.962E-01
    3.800   2.086E-01
    3.900   2.215E-01
    4.000   2.350E-01
    4.100   2.490E-01
    4.200   2.637E-01
    4.300   2.790E-01
    4.400   2.949E-01
    4.500   3.116E-01
    4.600   3.289E-01
    4.700   3.470E-01
    4.800   3.659E-01
    4.900   3.856E-01
    5.000   4.061E-01
    5.100   4.275E-01
    5.200   4.499E-01
    5.300   4.732E-01
    5.400   4.976E-01
    5.500   5.230E-01
    5.600   5.496E-01
    5.700   5.774E-01
    5.800   6.063E-01
    5.900   6.366E-01
    6.000   6.682E-01
    6.100   7.013E-01
    6.200   7.358E-01
    6.300   7.719E-01
    6.400   8.097E-01
    6.500   8.491E-01
    6.600   8.903E-01
    6.700   9.334E-01
    6.800   9.783E-01
    6.900   1.025E+00
    7.000   1.074E+00
    7.100   1.126E+00
    7.200   1.179E+00
    7.300   1.235E+00
    7.400   1.293E+00
    7.500   1.354E+00
    7.600   1.417E+00
    7.700   1.483E+00
    7.800   1.551E+00
    7.900   1.623E+00
    8.000   1.698E+00
    8.100   1.775E+00
    8.200   1.856E+00
    8.300   1.941E+00
    8.400   2.029E+00
    8.500   2.120E+00
    8.600   2.216E+00
    8.700   2.316E+00
    8.800   2.419E+00
    8.900   2.528E+00
    9.000   2.641E+00
    9.100   2.759E+00
    9.200   2.882E+00
    9.300   3.010E+00
    9.400   3.144E+00
    9.500   3.283E+00
    9.600   3.428E+00
    9.700   3.580E+00
    9.800   3.738E+00
    9.900   3.903E+00
   10.000   4.075E+00
   10.100   4.254E+00
   10.200   4.441E+00
   10.300   4.637E+00
   10.400   4.840E+00
   10.500   5.053E+00
   10.600   5.275E+00
   10.700   5.507E+00
   10.800   5.750E+00
   10.900   6.003E+00
   11.000   6.268E+00
   11.100   6.545E+00
   11.200   6.835E+00
   11.300   7.138E+00
   11.400   7.455E+00
   11.500   7.787E+00
   11.600   8.134E+00
   11.700   8.498E+00
   11.800   8.878E+00
   11.900   9.275E+00
   12.000   9.691E+00
   12.100   1.012E+01
   12.200   1.058E+01
   12.300   1.105E+01
   12.400   1.154E+01
   12.500   1.205E+01
   12.600   1.257E+01
   12.700   1.311E+01
   12.800   1.366E+01
   12.900   1.423E+01
   13.000   1.481E+01
   13.100   1.538E+01
   13.200   1.597E+01
   13.300   1.654E+01
   13.400   1.711E+01
   13.500   1.766E+01
   13.600   1.820E+01
   13.700   1.870E+01
   13.800   1.918E+01
   13.900   1.961E+01
   14.000   2.001E+01
   14.100   2.035E+01
   14.200   2.063E+01
   14.300   2.086E+01
   14.400   2.103E+01
   14.500   2.113E+01
   14.600   2.118E+01
   14.700   2.115E+01
   14.800   2.107E+01
   14.900   2.092E+01
   15.000   2.072E+01
   15.100   2.047E+01
   15.200   2.016E+01
   15.300   1.982E+01
   15.400   1.943E+01
   15.500   1.901E+01
   15.600   1.857E+01
   15.700   1.810E+01
   15.800   1.762E+01
   15.900   1.712E+01
   16.000   1.662E+01
   16.100   1.611E+01
   16.200   1.560E+01
   16.300   1.510E+01
   16.400   1.460E+01
   16.500   1.412E+01
   16.600   1.364E+01
   16.700   1.317E+01
   16.800   1.272E+01
   16.900   1.228E+01
   17.000   1.186E+01
   17.100   1.145E+01
   17.200   1.105E+01
   17.300   1.067E+01
   17.400   1.031E+01
   17.500   9.957E+00
   17.600   9.620E+00
   17.700   9.296E+00
   17.800   8.985E+00
   17.900   8.686E+00
   18.000   8.399E+00
   18.100   8.123E+00
   18.200   7.858E+00
   18.300   7.604E+00
   18.400   7.359E+00
   18.500   7.124E+00
   18.600   6.899E+00
   18.700   6.682E+00
   18.800   6.473E+00
   18.900   6.273E+00
   19.000   6.081E+00
   19.100   5.896E+00
   19.200   5.719E+00
   19.300   5.549E+00
   19.400   5.386E+00
   19.500   5.229E+00
   19.600   5.079E+00
   19.700   4.934E+00
   19.800   4.796E+00
   19.900   4.663E+00
   20.000   4.535E+00
   20.100   4.412E+00
   20.200   4.295E+00
   20.300   4.181E+00
   20.400   4.073E+00
   20.500   3.968E+00
   20.600   3.868E+00
   20.700   3.771E+00
   20.800   3.678E+00
   20.900   3.589E+00
   21.000   3.503E+00
   21.100   3.420E+00
   21.200   3.340E+00
   21.300   3.263E+00
   21.400   3.188E+00
   21.500   3.117E+00
   21.600   3.048E+00
   21.700   2.981E+00
   21.800   2.916E+00
   21.900   2.854E+00
   22.000   2.794E+00
   22.100   2.735E+00
   22.200   2.679E+00
   22.300   2.625E+00
   22.400   2.572E+00
   22.500   2.521E+00
   22.600   2.471E+00
   22.700   2.423E+00
   22.800   2.377E+00
   22.900   2.332E+00
   23.000   2.288E+00
   23.100   2.246E+00
   23.200   2.204E+00
   23.300   2.164E+00
   23.400   2.126E+00
   23.500   2.088E+00
   23.600   2.051E+00
   23.700   2.016E+00
   23.800   1.981E+00
   23.900   1.947E+00
   24.000   1.914E+00
   24.100   1.882E+00
   24.200   1.851E+00
   24.300   1.821E+00
   24.400   1.792E+00
   24.500   1.763E+00
   24.600   1.735E+00
   24.700   1.708E+00
   24.800   1.681E+00
   24.900   1.655E+00
   25.000   1.630E+00
   25.100   1.605E+00
   25.200   1.581E+00
   25.300   1.558E+00
   25.400   1.535E+00
   25.500   1.512E+00
   25.600   1.491E+00
   25.700   1.469E+00
   25.800   1.448E+00
   25.900   1.428E+00
   26.000   1.408E+00
   26.100   1.388E+00
   26.200   1.369E+00
   26.300   1.351E+00
   26.400   1.332E+00
   26.500   1.315E+00
   26.600   1.297E+00
   26.700   1.280E+00
   26.800   1.263E+00
   26.900   1.247E+00
   27.000   1.231E+00
   27.100   1.215E+00
   27.200   1.200E+00
   27.300   1.185E+00
   27.400   1.170E+00
   27.500   1.156E+00
   27.600   1.141E+00
   27.700   1.127E+00
   27.800   1.114E+00
   27.900   1.100E+00
   28.000   1.087E+00
   28.100   1.074E+00
   28.200   1.062E+00
   28.300   1.049E+00
   28.400   1.037E+00
   28.500   1.025E+00
   28.600   1.014E+00
   28.700   1.002E+00
   28.800   9.908E-01
   28.900   9.798E-01
   29.000   9.689E-01
   29.100   9.582E-01
   29.200   9.477E-01
   29.300   9.374E-01
   29.400   9.272E-01
   29.500   9.173E-01
   29.600   9.075E-01
   29.700   8.979E-01
   29.800   8.884E-01
   29.900   8.791E-01
   30.000   8.700E-01
 
 Z=  56 A= 142  D1M-QRPA
   E[MeV]   fQRPA[mb/MeV]
    0.100   1.463E-04
    0.200   5.853E-04
    0.300   1.318E-03
    0.400   2.344E-03
    0.500   3.666E-03
    0.600   5.286E-03
    0.700   7.204E-03
    0.800   9.424E-03
    0.900   1.195E-02
    1.000   1.478E-02
    1.100   1.792E-02
    1.200   2.138E-02
    1.300   2.515E-02
    1.400   2.925E-02
    1.500   3.367E-02
    1.600   3.843E-02
    1.700   4.352E-02
    1.800   4.895E-02
    1.900   5.473E-02
    2.000   6.086E-02
    2.100   6.734E-02
    2.200   7.419E-02
    2.300   8.142E-02
    2.400   8.902E-02
    2.500   9.701E-02
    2.600   1.054E-01
    2.700   1.142E-01
    2.800   1.234E-01
    2.900   1.330E-01
    3.000   1.431E-01
    3.100   1.536E-01
    3.200   1.646E-01
    3.300   1.761E-01
    3.400   1.880E-01
    3.500   2.005E-01
    3.600   2.135E-01
    3.700   2.270E-01
    3.800   2.412E-01
    3.900   2.559E-01
    4.000   2.712E-01
    4.100   2.872E-01
    4.200   3.038E-01
    4.300   3.211E-01
    4.400   3.392E-01
    4.500   3.579E-01
    4.600   3.775E-01
    4.700   3.979E-01
    4.800   4.191E-01
    4.900   4.412E-01
    5.000   4.642E-01
    5.100   4.882E-01
    5.200   5.132E-01
    5.300   5.392E-01
    5.400   5.664E-01
    5.500   5.947E-01
    5.600   6.242E-01
    5.700   6.549E-01
    5.800   6.870E-01
    5.900   7.205E-01
    6.000   7.554E-01
    6.100   7.918E-01
    6.200   8.298E-01
    6.300   8.694E-01
    6.400   9.107E-01
    6.500   9.539E-01
    6.600   9.989E-01
    6.700   1.046E+00
    6.800   1.095E+00
    6.900   1.146E+00
    7.000   1.199E+00
    7.100   1.255E+00
    7.200   1.312E+00
    7.300   1.373E+00
    7.400   1.436E+00
    7.500   1.501E+00
    7.600   1.569E+00
    7.700   1.640E+00
    7.800   1.714E+00
    7.900   1.791E+00
    8.000   1.871E+00
    8.100   1.954E+00
    8.200   2.041E+00
    8.300   2.132E+00
    8.400   2.226E+00
    8.500   2.324E+00
    8.600   2.427E+00
    8.700   2.533E+00
    8.800   2.645E+00
    8.900   2.761E+00
    9.000   2.883E+00
    9.100   3.009E+00
    9.200   3.142E+00
    9.300   3.280E+00
    9.400   3.425E+00
    9.500   3.577E+00
    9.600   3.735E+00
    9.700   3.901E+00
    9.800   4.074E+00
    9.900   4.256E+00
   10.000   4.446E+00
   10.100   4.644E+00
   10.200   4.852E+00
   10.300   5.070E+00
   10.400   5.298E+00
   10.500   5.536E+00
   10.600   5.786E+00
   10.700   6.047E+00
   10.800   6.320E+00
   10.900   6.605E+00
   11.000   6.904E+00
   11.100   7.216E+00
   11.200   7.542E+00
   11.300   7.883E+00
   11.400   8.239E+00
   11.500   8.611E+00
   11.600   8.998E+00
   11.700   9.402E+00
   11.800   9.822E+00
   11.900   1.026E+01
   12.000   1.071E+01
   12.100   1.118E+01
   12.200   1.167E+01
   12.300   1.216E+01
   12.400   1.268E+01
   12.500   1.320E+01
   12.600   1.374E+01
   12.700   1.428E+01
   12.800   1.482E+01
   12.900   1.537E+01
   13.000   1.592E+01
   13.100   1.646E+01
   13.200   1.699E+01
   13.300   1.750E+01
   13.400   1.800E+01
   13.500   1.847E+01
   13.600   1.891E+01
   13.700   1.932E+01
   13.800   1.969E+01
   13.900   2.002E+01
   14.000   2.030E+01
   14.100   2.053E+01
   14.200   2.071E+01
   14.300   2.084E+01
   14.400   2.091E+01
   14.500   2.093E+01
   14.600   2.090E+01
   14.700   2.082E+01
   14.800   2.068E+01
   14.900   2.050E+01
   15.000   2.027E+01
   15.100   1.999E+01
   15.200   1.968E+01
   15.300   1.933E+01
   15.400   1.896E+01
   15.500   1.855E+01
   15.600   1.812E+01
   15.700   1.767E+01
   15.800   1.721E+01
   15.900   1.673E+01
   16.000   1.625E+01
   16.100   1.577E+01
   16.200   1.528E+01
   16.300   1.480E+01
   16.400   1.432E+01
   16.500   1.385E+01
   16.600   1.339E+01
   16.700   1.294E+01
   16.800   1.250E+01
   16.900   1.208E+01
   17.000   1.166E+01
   17.100   1.126E+01
   17.200   1.088E+01
   17.300   1.050E+01
   17.400   1.015E+01
   17.500   9.801E+00
   17.600   9.471E+00
   17.700   9.153E+00
   17.800   8.849E+00
   17.900   8.557E+00
   18.000   8.278E+00
   18.100   8.010E+00
   18.200   7.753E+00
   18.300   7.508E+00
   18.400   7.273E+00
   18.500   7.047E+00
   18.600   6.832E+00
   18.700   6.625E+00
   18.800   6.428E+00
   18.900   6.238E+00
   19.000   6.056E+00
   19.100   5.882E+00
   19.200   5.715E+00
   19.300   5.555E+00
   19.400   5.402E+00
   19.500   5.254E+00
   19.600   5.113E+00
   19.700   4.977E+00
   19.800   4.846E+00
   19.900   4.720E+00
   20.000   4.600E+00
   20.100   4.484E+00
   20.200   4.372E+00
   20.300   4.264E+00
   20.400   4.161E+00
   20.500   4.061E+00
   20.600   3.965E+00
   20.700   3.872E+00
   20.800   3.783E+00
   20.900   3.696E+00
   21.000   3.613E+00
   21.100   3.533E+00
   21.200   3.455E+00
   21.300   3.380E+00
   21.400   3.308E+00
   21.500   3.237E+00
   21.600   3.170E+00
   21.700   3.104E+00
   21.800   3.040E+00
   21.900   2.979E+00
   22.000   2.919E+00
   22.100   2.862E+00
   22.200   2.806E+00
   22.300   2.751E+00
   22.400   2.699E+00
   22.500   2.648E+00
   22.600   2.598E+00
   22.700   2.550E+00
   22.800   2.503E+00
   22.900   2.458E+00
   23.000   2.414E+00
   23.100   2.371E+00
   23.200   2.329E+00
   23.300   2.289E+00
   23.400   2.249E+00
   23.500   2.211E+00
   23.600   2.174E+00
   23.700   2.138E+00
   23.800   2.102E+00
   23.900   2.068E+00
   24.000   2.034E+00
   24.100   2.002E+00
   24.200   1.970E+00
   24.300   1.939E+00
   24.400   1.908E+00
   24.500   1.879E+00
   24.600   1.850E+00
   24.700   1.822E+00
   24.800   1.795E+00
   24.900   1.768E+00
   25.000   1.742E+00
   25.100   1.716E+00
   25.200   1.691E+00
   25.300   1.667E+00
   25.400   1.643E+00
   25.500   1.620E+00
   25.600   1.597E+00
   25.700   1.575E+00
   25.800   1.553E+00
   25.900   1.532E+00
   26.000   1.511E+00
   26.100   1.491E+00
   26.200   1.471E+00
   26.300   1.451E+00
   26.400   1.432E+00
   26.500   1.414E+00
   26.600   1.395E+00
   26.700   1.377E+00
   26.800   1.360E+00
   26.900   1.343E+00
   27.000   1.326E+00
   27.100   1.309E+00
   27.200   1.293E+00
   27.300   1.277E+00
   27.400   1.262E+00
   27.500   1.247E+00
   27.600   1.232E+00
   27.700   1.217E+00
   27.800   1.203E+00
   27.900   1.188E+00
   28.000   1.175E+00
   28.100   1.161E+00
   28.200   1.148E+00
   28.300   1.135E+00
   28.400   1.122E+00
   28.500   1.109E+00
   28.600   1.097E+00
   28.700   1.084E+00
   28.800   1.072E+00
   28.900   1.061E+00
   29.000   1.049E+00
   29.100   1.038E+00
   29.200   1.027E+00
   29.300   1.016E+00
   29.400   1.005E+00
   29.500   9.943E-01
   29.600   9.839E-01
   29.700   9.737E-01
   29.800   9.636E-01
   29.900   9.537E-01
   30.000   9.439E-01
 
 Z=  56 A= 143  D1M-QRPA-Inter
 E[MeV]  fQRPA[mb/MeV]
    0.100   1.759E-04
    0.200   7.038E-04
    0.300   1.584E-03
    0.400   2.818E-03
    0.500   4.406E-03
    0.600   6.350E-03
    0.700   8.651E-03
    0.800   1.131E-02
    0.900   1.433E-02
    1.000   1.772E-02
    1.100   2.147E-02
    1.200   2.560E-02
    1.300   3.009E-02
    1.400   3.496E-02
    1.500   4.021E-02
    1.600   4.584E-02
    1.700   5.186E-02
    1.800   5.826E-02
    1.900   6.507E-02
    2.000   7.227E-02
    2.100   7.988E-02
    2.200   8.791E-02
    2.300   9.635E-02
    2.400   1.052E-01
    2.500   1.145E-01
    2.600   1.243E-01
    2.700   1.345E-01
    2.800   1.452E-01
    2.900   1.564E-01
    3.000   1.681E-01
    3.100   1.803E-01
    3.200   1.931E-01
    3.300   2.064E-01
    3.400   2.203E-01
    3.500   2.348E-01
    3.600   2.499E-01
    3.700   2.657E-01
    3.800   2.821E-01
    3.900   2.993E-01
    4.000   3.172E-01
    4.100   3.358E-01
    4.200   3.552E-01
    4.300   3.755E-01
    4.400   3.966E-01
    4.500   4.186E-01
    4.600   4.416E-01
    4.700   4.655E-01
    4.800   4.904E-01
    4.900   5.165E-01
    5.000   5.436E-01
    5.100   5.718E-01
    5.200   6.013E-01
    5.300   6.321E-01
    5.400   6.641E-01
    5.500   6.976E-01
    5.600   7.324E-01
    5.700   7.688E-01
    5.800   8.068E-01
    5.900   8.464E-01
    6.000   8.877E-01
    6.100   9.308E-01
    6.200   9.758E-01
    6.300   1.023E+00
    6.400   1.072E+00
    6.500   1.123E+00
    6.600   1.176E+00
    6.700   1.231E+00
    6.800   1.289E+00
    6.900   1.350E+00
    7.000   1.413E+00
    7.100   1.478E+00
    7.200   1.547E+00
    7.300   1.618E+00
    7.400   1.692E+00
    7.500   1.770E+00
    7.600   1.850E+00
    7.700   1.934E+00
    7.800   2.021E+00
    7.900   2.113E+00
    8.000   2.207E+00
    8.100   2.306E+00
    8.200   2.409E+00
    8.300   2.517E+00
    8.400   2.628E+00
    8.500   2.745E+00
    8.600   2.867E+00
    8.700   2.994E+00
    8.800   3.127E+00
    8.900   3.266E+00
    9.000   3.411E+00
    9.100   3.563E+00
    9.200   3.721E+00
    9.300   3.887E+00
    9.400   4.061E+00
    9.500   4.242E+00
    9.600   4.432E+00
    9.700   4.631E+00
    9.800   4.839E+00
    9.900   5.057E+00
   10.000   5.285E+00
   10.100   5.523E+00
   10.200   5.772E+00
   10.300   6.033E+00
   10.400   6.306E+00
   10.500   6.591E+00
   10.600   6.889E+00
   10.700   7.200E+00
   10.800   7.524E+00
   10.900   7.863E+00
   11.000   8.216E+00
   11.100   8.584E+00
   11.200   8.967E+00
   11.300   9.365E+00
   11.400   9.778E+00
   11.500   1.021E+01
   11.600   1.065E+01
   11.700   1.111E+01
   11.800   1.158E+01
   11.900   1.206E+01
   12.000   1.256E+01
   12.100   1.307E+01
   12.200   1.359E+01
   12.300   1.411E+01
   12.400   1.464E+01
   12.500   1.516E+01
   12.600   1.569E+01
   12.700   1.621E+01
   12.800   1.672E+01
   12.900   1.722E+01
   13.000   1.771E+01
   13.100   1.817E+01
   13.200   1.860E+01
   13.300   1.901E+01
   13.400   1.938E+01
   13.500   1.972E+01
   13.600   2.001E+01
   13.700   2.026E+01
   13.800   2.046E+01
   13.900   2.061E+01
   14.000   2.071E+01
   14.100   2.076E+01
   14.200   2.076E+01
   14.300   2.071E+01
   14.400   2.061E+01
   14.500   2.046E+01
   14.600   2.027E+01
   14.700   2.003E+01
   14.800   1.976E+01
   14.900   1.945E+01
   15.000   1.911E+01
   15.100   1.874E+01
   15.200   1.834E+01
   15.300   1.793E+01
   15.400   1.750E+01
   15.500   1.705E+01
   15.600   1.660E+01
   15.700   1.614E+01
   15.800   1.567E+01
   15.900   1.521E+01
   16.000   1.474E+01
   16.100   1.429E+01
   16.200   1.383E+01
   16.300   1.339E+01
   16.400   1.296E+01
   16.500   1.253E+01
   16.600   1.212E+01
   16.700   1.172E+01
   16.800   1.133E+01
   16.900   1.095E+01
   17.000   1.059E+01
   17.100   1.024E+01
   17.200   9.900E+00
   17.300   9.575E+00
   17.400   9.263E+00
   17.500   8.963E+00
   17.600   8.676E+00
   17.700   8.399E+00
   17.800   8.134E+00
   17.900   7.880E+00
   18.000   7.637E+00
   18.100   7.403E+00
   18.200   7.179E+00
   18.300   6.964E+00
   18.400   6.758E+00
   18.500   6.561E+00
   18.600   6.371E+00
   18.700   6.190E+00
   18.800   6.015E+00
   18.900   5.848E+00
   19.000   5.687E+00
   19.100   5.533E+00
   19.200   5.385E+00
   19.300   5.242E+00
   19.400   5.105E+00
   19.500   4.974E+00
   19.600   4.847E+00
   19.700   4.725E+00
   19.800   4.608E+00
   19.900   4.495E+00
   20.000   4.386E+00
   20.100   4.281E+00
   20.200   4.180E+00
   20.300   4.083E+00
   20.400   3.989E+00
   20.500   3.898E+00
   20.600   3.810E+00
   20.700   3.726E+00
   20.800   3.644E+00
   20.900   3.565E+00
   21.000   3.489E+00
   21.100   3.415E+00
   21.200   3.344E+00
   21.300   3.275E+00
   21.400   3.208E+00
   21.500   3.143E+00
   21.600   3.080E+00
   21.700   3.019E+00
   21.800   2.960E+00
   21.900   2.903E+00
   22.000   2.848E+00
   22.100   2.794E+00
   22.200   2.742E+00
   22.300   2.691E+00
   22.400   2.642E+00
   22.500   2.594E+00
   22.600   2.547E+00
   22.700   2.502E+00
   22.800   2.458E+00
   22.900   2.416E+00
   23.000   2.374E+00
   23.100   2.334E+00
   23.200   2.294E+00
   23.300   2.256E+00
   23.400   2.219E+00
   23.500   2.182E+00
   23.600   2.147E+00
   23.700   2.113E+00
   23.800   2.079E+00
   23.900   2.046E+00
   24.000   2.014E+00
   24.100   1.983E+00
   24.200   1.953E+00
   24.300   1.923E+00
   24.400   1.894E+00
   24.500   1.866E+00
   24.600   1.838E+00
   24.700   1.812E+00
   24.800   1.785E+00
   24.900   1.760E+00
   25.000   1.734E+00
   25.100   1.710E+00
   25.200   1.686E+00
   25.300   1.662E+00
   25.400   1.639E+00
   25.500   1.617E+00
   25.600   1.595E+00
   25.700   1.574E+00
   25.800   1.553E+00
   25.900   1.532E+00
   26.000   1.512E+00
   26.100   1.492E+00
   26.200   1.473E+00
   26.300   1.454E+00
   26.400   1.435E+00
   26.500   1.417E+00
   26.600   1.400E+00
   26.700   1.382E+00
   26.800   1.365E+00
   26.900   1.348E+00
   27.000   1.332E+00
   27.100   1.316E+00
   27.200   1.300E+00
   27.300   1.284E+00
   27.400   1.269E+00
   27.500   1.254E+00
   27.600   1.240E+00
   27.700   1.225E+00
   27.800   1.211E+00
   27.900   1.197E+00
   28.000   1.184E+00
   28.100   1.171E+00
   28.200   1.157E+00
   28.300   1.145E+00
   28.400   1.132E+00
   28.500   1.120E+00
   28.600   1.107E+00
   28.700   1.095E+00
   28.800   1.084E+00
   28.900   1.072E+00
   29.000   1.061E+00
   29.100   1.049E+00
   29.200   1.038E+00
   29.300   1.028E+00
   29.400   1.017E+00
   29.500   1.007E+00
   29.600   9.963E-01
   29.700   9.861E-01
   29.800   9.762E-01
   29.900   9.664E-01
   30.000   9.568E-01
 
 Z=  56 A= 144  D1M-QRPA
   E[MeV]   fQRPA[mb/MeV]
    0.100   2.101E-04
    0.200   8.406E-04
    0.300   1.892E-03
    0.400   3.364E-03
    0.500   5.259E-03
    0.600   7.576E-03
    0.700   1.032E-02
    0.800   1.349E-02
    0.900   1.708E-02
    1.000   2.110E-02
    1.100   2.555E-02
    1.200   3.043E-02
    1.300   3.575E-02
    1.400   4.150E-02
    1.500   4.768E-02
    1.600   5.431E-02
    1.700   6.137E-02
    1.800   6.888E-02
    1.900   7.684E-02
    2.000   8.524E-02
    2.100   9.411E-02
    2.200   1.034E-01
    2.300   1.133E-01
    2.400   1.235E-01
    2.500   1.343E-01
    2.600   1.456E-01
    2.700   1.575E-01
    2.800   1.698E-01
    2.900   1.827E-01
    3.000   1.962E-01
    3.100   2.103E-01
    3.200   2.250E-01
    3.300   2.404E-01
    3.400   2.564E-01
    3.500   2.731E-01
    3.600   2.906E-01
    3.700   3.088E-01
    3.800   3.278E-01
    3.900   3.477E-01
    4.000   3.684E-01
    4.100   3.900E-01
    4.200   4.126E-01
    4.300   4.361E-01
    4.400   4.607E-01
    4.500   4.863E-01
    4.600   5.130E-01
    4.700   5.409E-01
    4.800   5.701E-01
    4.900   6.005E-01
    5.000   6.322E-01
    5.100   6.653E-01
    5.200   6.998E-01
    5.300   7.358E-01
    5.400   7.735E-01
    5.500   8.127E-01
    5.600   8.537E-01
    5.700   8.964E-01
    5.800   9.410E-01
    5.900   9.876E-01
    6.000   1.036E+00
    6.100   1.087E+00
    6.200   1.140E+00
    6.300   1.195E+00
    6.400   1.252E+00
    6.500   1.312E+00
    6.600   1.375E+00
    6.700   1.440E+00
    6.800   1.508E+00
    6.900   1.579E+00
    7.000   1.653E+00
    7.100   1.730E+00
    7.200   1.811E+00
    7.300   1.894E+00
    7.400   1.981E+00
    7.500   2.072E+00
    7.600   2.167E+00
    7.700   2.265E+00
    7.800   2.368E+00
    7.900   2.475E+00
    8.000   2.586E+00
    8.100   2.703E+00
    8.200   2.824E+00
    8.300   2.951E+00
    8.400   3.083E+00
    8.500   3.221E+00
    8.600   3.365E+00
    8.700   3.515E+00
    8.800   3.673E+00
    8.900   3.837E+00
    9.000   4.009E+00
    9.100   4.189E+00
    9.200   4.378E+00
    9.300   4.575E+00
    9.400   4.782E+00
    9.500   4.998E+00
    9.600   5.224E+00
    9.700   5.461E+00
    9.800   5.709E+00
    9.900   5.968E+00
   10.000   6.239E+00
   10.100   6.523E+00
   10.200   6.820E+00
   10.300   7.130E+00
   10.400   7.455E+00
   10.500   7.793E+00
   10.600   8.146E+00
   10.700   8.514E+00
   10.800   8.898E+00
   10.900   9.297E+00
   11.000   9.712E+00
   11.100   1.014E+01
   11.200   1.059E+01
   11.300   1.105E+01
   11.400   1.153E+01
   11.500   1.202E+01
   11.600   1.252E+01
   11.700   1.303E+01
   11.800   1.356E+01
   11.900   1.409E+01
   12.000   1.463E+01
   12.100   1.517E+01
   12.200   1.571E+01
   12.300   1.625E+01
   12.400   1.678E+01
   12.500   1.730E+01
   12.600   1.780E+01
   12.700   1.828E+01
   12.800   1.874E+01
   12.900   1.917E+01
   13.000   1.956E+01
   13.100   1.992E+01
   13.200   2.024E+01
   13.300   2.051E+01
   13.400   2.073E+01
   13.500   2.090E+01
   13.600   2.102E+01
   13.700   2.109E+01
   13.800   2.111E+01
   13.900   2.107E+01
   14.000   2.099E+01
   14.100   2.085E+01
   14.200   2.067E+01
   14.300   2.044E+01
   14.400   2.017E+01
   14.500   1.986E+01
   14.600   1.952E+01
   14.700   1.915E+01
   14.800   1.875E+01
   14.900   1.833E+01
   15.000   1.789E+01
   15.100   1.744E+01
   15.200   1.698E+01
   15.300   1.651E+01
   15.400   1.604E+01
   15.500   1.557E+01
   15.600   1.510E+01
   15.700   1.464E+01
   15.800   1.418E+01
   15.900   1.373E+01
   16.000   1.329E+01
   16.100   1.286E+01
   16.200   1.244E+01
   16.300   1.203E+01
   16.400   1.164E+01
   16.500   1.126E+01
   16.600   1.089E+01
   16.700   1.053E+01
   16.800   1.019E+01
   16.900   9.863E+00
   17.000   9.547E+00
   17.100   9.242E+00
   17.200   8.950E+00
   17.300   8.669E+00
   17.400   8.400E+00
   17.500   8.141E+00
   17.600   7.893E+00
   17.700   7.655E+00
   17.800   7.427E+00
   17.900   7.208E+00
   18.000   6.997E+00
   18.100   6.796E+00
   18.200   6.602E+00
   18.300   6.416E+00
   18.400   6.238E+00
   18.500   6.066E+00
   18.600   5.901E+00
   18.700   5.743E+00
   18.800   5.591E+00
   18.900   5.445E+00
   19.000   5.304E+00
   19.100   5.169E+00
   19.200   5.039E+00
   19.300   4.913E+00
   19.400   4.793E+00
   19.500   4.676E+00
   19.600   4.564E+00
   19.700   4.456E+00
   19.800   4.352E+00
   19.900   4.251E+00
   20.000   4.154E+00
   20.100   4.060E+00
   20.200   3.970E+00
   20.300   3.883E+00
   20.400   3.798E+00
   20.500   3.716E+00
   20.600   3.637E+00
   20.700   3.561E+00
   20.800   3.487E+00
   20.900   3.415E+00
   21.000   3.346E+00
   21.100   3.279E+00
   21.200   3.214E+00
   21.300   3.151E+00
   21.400   3.090E+00
   21.500   3.030E+00
   21.600   2.973E+00
   21.700   2.917E+00
   21.800   2.863E+00
   21.900   2.810E+00
   22.000   2.759E+00
   22.100   2.709E+00
   22.200   2.661E+00
   22.300   2.614E+00
   22.400   2.568E+00
   22.500   2.524E+00
   22.600   2.481E+00
   22.700   2.439E+00
   22.800   2.398E+00
   22.900   2.358E+00
   23.000   2.319E+00
   23.100   2.281E+00
   23.200   2.245E+00
   23.300   2.209E+00
   23.400   2.174E+00
   23.500   2.140E+00
   23.600   2.106E+00
   23.700   2.074E+00
   23.800   2.042E+00
   23.900   2.011E+00
   24.000   1.981E+00
   24.100   1.952E+00
   24.200   1.923E+00
   24.300   1.895E+00
   24.400   1.867E+00
   24.500   1.841E+00
   24.600   1.814E+00
   24.700   1.789E+00
   24.800   1.764E+00
   24.900   1.739E+00
   25.000   1.715E+00
   25.100   1.692E+00
   25.200   1.669E+00
   25.300   1.647E+00
   25.400   1.625E+00
   25.500   1.603E+00
   25.600   1.582E+00
   25.700   1.562E+00
   25.800   1.542E+00
   25.900   1.522E+00
   26.000   1.502E+00
   26.100   1.483E+00
   26.200   1.465E+00
   26.300   1.447E+00
   26.400   1.429E+00
   26.500   1.411E+00
   26.600   1.394E+00
   26.700   1.377E+00
   26.800   1.361E+00
   26.900   1.345E+00
   27.000   1.329E+00
   27.100   1.313E+00
   27.200   1.298E+00
   27.300   1.283E+00
   27.400   1.268E+00
   27.500   1.254E+00
   27.600   1.240E+00
   27.700   1.226E+00
   27.800   1.212E+00
   27.900   1.198E+00
   28.000   1.185E+00
   28.100   1.172E+00
   28.200   1.160E+00
   28.300   1.147E+00
   28.400   1.135E+00
   28.500   1.123E+00
   28.600   1.111E+00
   28.700   1.099E+00
   28.800   1.087E+00
   28.900   1.076E+00
   29.000   1.065E+00
   29.100   1.054E+00
   29.200   1.043E+00
   29.300   1.033E+00
   29.400   1.022E+00
   29.500   1.012E+00
   29.600   1.002E+00
   29.700   9.920E-01
   29.800   9.822E-01
   29.900   9.726E-01
   30.000   9.632E-01
 
 Z=  56 A= 145  D1M-QRPA-Inter
 E[MeV]  fQRPA[mb/MeV]
    0.100   1.665E-03
    0.200   4.177E-03
    0.300   6.891E-03
    0.400   9.765E-03
    0.500   1.279E-02
    0.600   1.597E-02
    0.700   1.932E-02
    0.800   2.284E-02
    0.900   2.656E-02
    1.000   3.050E-02
    1.100   3.468E-02
    1.200   3.913E-02
    1.300   4.386E-02
    1.400   4.891E-02
    1.500   5.429E-02
    1.600   6.002E-02
    1.700   6.613E-02
    1.800   7.263E-02
    1.900   7.954E-02
    2.000   8.687E-02
    2.100   9.465E-02
    2.200   1.029E-01
    2.300   1.116E-01
    2.400   1.208E-01
    2.500   1.305E-01
    2.600   1.408E-01
    2.700   1.516E-01
    2.800   1.630E-01
    2.900   1.750E-01
    3.000   1.877E-01
    3.100   2.011E-01
    3.200   2.152E-01
    3.300   2.301E-01
    3.400   2.459E-01
    3.500   2.625E-01
    3.600   2.801E-01
    3.700   2.988E-01
    3.800   3.185E-01
    3.900   3.394E-01
    4.000   3.615E-01
    4.100   3.848E-01
    4.200   4.096E-01
    4.300   4.356E-01
    4.400   4.631E-01
    4.500   4.921E-01
    4.600   5.225E-01
    4.700   5.543E-01
    4.800   5.876E-01
    4.900   6.221E-01
    5.000   6.580E-01
    5.100   6.950E-01
    5.200   7.332E-01
    5.300   7.724E-01
    5.400   8.125E-01
    5.500   8.536E-01
    5.600   8.956E-01
    5.700   9.385E-01
    5.800   9.823E-01
    5.900   1.027E+00
    6.000   1.073E+00
    6.100   1.120E+00
    6.200   1.169E+00
    6.300   1.220E+00
    6.400   1.272E+00
    6.500   1.326E+00
    6.600   1.382E+00
    6.700   1.441E+00
    6.800   1.502E+00
    6.900   1.566E+00
    7.000   1.634E+00
    7.100   1.705E+00
    7.200   1.779E+00
    7.300   1.857E+00
    7.400   1.940E+00
    7.500   2.026E+00
    7.600   2.117E+00
    7.700   2.212E+00
    7.800   2.311E+00
    7.900   2.415E+00
    8.000   2.524E+00
    8.100   2.637E+00
    8.200   2.755E+00
    8.300   2.878E+00
    8.400   3.006E+00
    8.500   3.140E+00
    8.600   3.280E+00
    8.700   3.427E+00
    8.800   3.581E+00
    8.900   3.742E+00
    9.000   3.912E+00
    9.100   4.091E+00
    9.200   4.278E+00
    9.300   4.476E+00
    9.400   4.684E+00
    9.500   4.902E+00
    9.600   5.133E+00
    9.700   5.376E+00
    9.800   5.632E+00
    9.900   5.904E+00
   10.000   6.191E+00
   10.100   6.494E+00
   10.200   6.816E+00
   10.300   7.158E+00
   10.400   7.520E+00
   10.500   7.904E+00
   10.600   8.310E+00
   10.700   8.740E+00
   10.800   9.193E+00
   10.900   9.669E+00
   11.000   1.017E+01
   11.100   1.069E+01
   11.200   1.122E+01
   11.300   1.178E+01
   11.400   1.234E+01
   11.500   1.292E+01
   11.600   1.349E+01
   11.700   1.406E+01
   11.800   1.462E+01
   11.900   1.517E+01
   12.000   1.568E+01
   12.100   1.617E+01
   12.200   1.663E+01
   12.300   1.704E+01
   12.400   1.743E+01
   12.500   1.777E+01
   12.600   1.809E+01
   12.700   1.837E+01
   12.800   1.862E+01
   12.900   1.885E+01
   13.000   1.906E+01
   13.100   1.924E+01
   13.200   1.941E+01
   13.300   1.955E+01
   13.400   1.967E+01
   13.500   1.977E+01
   13.600   1.984E+01
   13.700   1.989E+01
   13.800   1.990E+01
   13.900   1.988E+01
   14.000   1.982E+01
   14.100   1.973E+01
   14.200   1.960E+01
   14.300   1.943E+01
   14.400   1.923E+01
   14.500   1.899E+01
   14.600   1.873E+01
   14.700   1.844E+01
   14.800   1.813E+01
   14.900   1.781E+01
   15.000   1.748E+01
   15.100   1.714E+01
   15.200   1.680E+01
   15.300   1.646E+01
   15.400   1.611E+01
   15.500   1.577E+01
   15.600   1.543E+01
   15.700   1.508E+01
   15.800   1.474E+01
   15.900   1.439E+01
   16.000   1.403E+01
   16.100   1.368E+01
   16.200   1.332E+01
   16.300   1.295E+01
   16.400   1.259E+01
   16.500   1.222E+01
   16.600   1.186E+01
   16.700   1.150E+01
   16.800   1.115E+01
   16.900   1.081E+01
   17.000   1.047E+01
   17.100   1.015E+01
   17.200   9.833E+00
   17.300   9.534E+00
   17.400   9.249E+00
   17.500   8.978E+00
   17.600   8.721E+00
   17.700   8.478E+00
   17.800   8.248E+00
   17.900   8.030E+00
   18.000   7.823E+00
   18.100   7.626E+00
   18.200   7.438E+00
   18.300   7.257E+00
   18.400   7.082E+00
   18.500   6.913E+00
   18.600   6.749E+00
   18.700   6.588E+00
   18.800   6.431E+00
   18.900   6.277E+00
   19.000   6.127E+00
   19.100   5.979E+00
   19.200   5.833E+00
   19.300   5.691E+00
   19.400   5.552E+00
   19.500   5.416E+00
   19.600   5.284E+00
   19.700   5.154E+00
   19.800   5.028E+00
   19.900   4.905E+00
   20.000   4.786E+00
   20.100   4.669E+00
   20.200   4.556E+00
   20.300   4.446E+00
   20.400   4.339E+00
   20.500   4.236E+00
   20.600   4.136E+00
   20.700   4.039E+00
   20.800   3.945E+00
   20.900   3.855E+00
   21.000   3.767E+00
   21.100   3.681E+00
   21.200   3.598E+00
   21.300   3.517E+00
   21.400   3.439E+00
   21.500   3.362E+00
   21.600   3.287E+00
   21.700   3.213E+00
   21.800   3.141E+00
   21.900   3.071E+00
   22.000   3.002E+00
   22.100   2.935E+00
   22.200   2.870E+00
   22.300   2.806E+00
   22.400   2.743E+00
   22.500   2.682E+00
   22.600   2.623E+00
   22.700   2.565E+00
   22.800   2.508E+00
   22.900   2.453E+00
   23.000   2.400E+00
   23.100   2.348E+00
   23.200   2.297E+00
   23.300   2.248E+00
   23.400   2.200E+00
   23.500   2.153E+00
   23.600   2.108E+00
   23.700   2.064E+00
   23.800   2.021E+00
   23.900   1.979E+00
   24.000   1.939E+00
   24.100   1.900E+00
   24.200   1.862E+00
   24.300   1.825E+00
   24.400   1.790E+00
   24.500   1.755E+00
   24.600   1.722E+00
   24.700   1.689E+00
   24.800   1.658E+00
   24.900   1.627E+00
   25.000   1.598E+00
   25.100   1.569E+00
   25.200   1.541E+00
   25.300   1.514E+00
   25.400   1.487E+00
   25.500   1.462E+00
   25.600   1.436E+00
   25.700   1.412E+00
   25.800   1.388E+00
   25.900   1.364E+00
   26.000   1.342E+00
   26.100   1.319E+00
   26.200   1.298E+00
   26.300   1.276E+00
   26.400   1.256E+00
   26.500   1.235E+00
   26.600   1.216E+00
   26.700   1.197E+00
   26.800   1.178E+00
   26.900   1.160E+00
   27.000   1.142E+00
   27.100   1.125E+00
   27.200   1.108E+00
   27.300   1.092E+00
   27.400   1.076E+00
   27.500   1.061E+00
   27.600   1.046E+00
   27.700   1.032E+00
   27.800   1.018E+00
   27.900   1.004E+00
   28.000   9.904E-01
   28.100   9.773E-01
   28.200   9.646E-01
   28.300   9.521E-01
   28.400   9.400E-01
   28.500   9.281E-01
   28.600   9.166E-01
   28.700   9.052E-01
   28.800   8.942E-01
   28.900   8.834E-01
   29.000   8.728E-01
   29.100   8.625E-01
   29.200   8.523E-01
   29.300   8.424E-01
   29.400   8.327E-01
   29.500   8.232E-01
   29.600   8.138E-01
   29.700   8.047E-01
   29.800   7.957E-01
   29.900   7.870E-01
   30.000   7.783E-01
 
 Z=  56 A= 146  D1M-QRPA
   E[MeV]   fQRPA[mb/MeV]
    0.100   1.296E-02
    0.200   2.039E-02
    0.300   2.466E-02
    0.400   2.785E-02
    0.500   3.057E-02
    0.600   3.309E-02
    0.700   3.554E-02
    0.800   3.801E-02
    0.900   4.059E-02
    1.000   4.331E-02
    1.100   4.624E-02
    1.200   4.942E-02
    1.300   5.287E-02
    1.400   5.663E-02
    1.500   6.072E-02
    1.600   6.517E-02
    1.700   7.000E-02
    1.800   7.523E-02
    1.900   8.088E-02
    2.000   8.697E-02
    2.100   9.351E-02
    2.200   1.005E-01
    2.300   1.080E-01
    2.400   1.160E-01
    2.500   1.246E-01
    2.600   1.337E-01
    2.700   1.434E-01
    2.800   1.537E-01
    2.900   1.647E-01
    3.000   1.764E-01
    3.100   1.889E-01
    3.200   2.022E-01
    3.300   2.164E-01
    3.400   2.316E-01
    3.500   2.479E-01
    3.600   2.653E-01
    3.700   2.840E-01
    3.800   3.040E-01
    3.900   3.254E-01
    4.000   3.484E-01
    4.100   3.731E-01
    4.200   3.994E-01
    4.300   4.275E-01
    4.400   4.574E-01
    4.500   4.892E-01
    4.600   5.228E-01
    4.700   5.580E-01
    4.800   5.949E-01
    4.900   6.332E-01
    5.000   6.728E-01
    5.100   7.134E-01
    5.200   7.547E-01
    5.300   7.965E-01
    5.400   8.386E-01
    5.500   8.808E-01
    5.600   9.230E-01
    5.700   9.652E-01
    5.800   1.007E+00
    5.900   1.050E+00
    6.000   1.092E+00
    6.100   1.135E+00
    6.200   1.178E+00
    6.300   1.223E+00
    6.400   1.268E+00
    6.500   1.315E+00
    6.600   1.364E+00
    6.700   1.416E+00
    6.800   1.469E+00
    6.900   1.526E+00
    7.000   1.586E+00
    7.100   1.650E+00
    7.200   1.717E+00
    7.300   1.789E+00
    7.400   1.865E+00
    7.500   1.946E+00
    7.600   2.031E+00
    7.700   2.122E+00
    7.800   2.216E+00
    7.900   2.315E+00
    8.000   2.419E+00
    8.100   2.527E+00
    8.200   2.640E+00
    8.300   2.757E+00
    8.400   2.880E+00
    8.500   3.007E+00
    8.600   3.141E+00
    8.700   3.282E+00
    8.800   3.430E+00
    8.900   3.586E+00
    9.000   3.750E+00
    9.100   3.924E+00
    9.200   4.107E+00
    9.300   4.301E+00
    9.400   4.507E+00
    9.500   4.724E+00
    9.600   4.955E+00
    9.700   5.199E+00
    9.800   5.460E+00
    9.900   5.737E+00
   10.000   6.034E+00
   10.100   6.352E+00
   10.200   6.693E+00
   10.300   7.059E+00
   10.400   7.453E+00
   10.500   7.875E+00
   10.600   8.329E+00
   10.700   8.814E+00
   10.800   9.331E+00
   10.900   9.879E+00
   11.000   1.046E+01
   11.100   1.106E+01
   11.200   1.169E+01
   11.300   1.233E+01
   11.400   1.299E+01
   11.500   1.364E+01
   11.600   1.429E+01
   11.700   1.491E+01
   11.800   1.549E+01
   11.900   1.603E+01
   12.000   1.651E+01
   12.100   1.693E+01
   12.200   1.728E+01
   12.300   1.756E+01
   12.400   1.778E+01
   12.500   1.794E+01
   12.600   1.805E+01
   12.700   1.813E+01
   12.800   1.818E+01
   12.900   1.821E+01
   13.000   1.824E+01
   13.100   1.826E+01
   13.200   1.828E+01
   13.300   1.831E+01
   13.400   1.834E+01
   13.500   1.837E+01
   13.600   1.840E+01
   13.700   1.842E+01
   13.800   1.843E+01
   13.900   1.842E+01
   14.000   1.839E+01
   14.100   1.834E+01
   14.200   1.826E+01
   14.300   1.814E+01
   14.400   1.801E+01
   14.500   1.784E+01
   14.600   1.765E+01
   14.700   1.745E+01
   14.800   1.723E+01
   14.900   1.700E+01
   15.000   1.677E+01
   15.100   1.655E+01
   15.200   1.633E+01
   15.300   1.611E+01
   15.400   1.590E+01
   15.500   1.569E+01
   15.600   1.548E+01
   15.700   1.527E+01
   15.800   1.505E+01
   15.900   1.481E+01
   16.000   1.456E+01
   16.100   1.429E+01
   16.200   1.400E+01
   16.300   1.370E+01
   16.400   1.338E+01
   16.500   1.304E+01
   16.600   1.270E+01
   16.700   1.234E+01
   16.800   1.199E+01
   16.900   1.163E+01
   17.000   1.128E+01
   17.100   1.094E+01
   17.200   1.061E+01
   17.300   1.030E+01
   17.400   1.000E+01
   17.500   9.726E+00
   17.600   9.466E+00
   17.700   9.223E+00
   17.800   8.998E+00
   17.900   8.789E+00
   18.000   8.592E+00
   18.100   8.407E+00
   18.200   8.232E+00
   18.300   8.063E+00
   18.400   7.900E+00
   18.500   7.740E+00
   18.600   7.582E+00
   18.700   7.425E+00
   18.800   7.267E+00
   18.900   7.110E+00
   19.000   6.952E+00
   19.100   6.793E+00
   19.200   6.635E+00
   19.300   6.477E+00
   19.400   6.319E+00
   19.500   6.163E+00
   19.600   6.009E+00
   19.700   5.857E+00
   19.800   5.708E+00
   19.900   5.560E+00
   20.000   5.416E+00
   20.100   5.274E+00
   20.200   5.136E+00
   20.300   5.001E+00
   20.400   4.870E+00
   20.500   4.743E+00
   20.600   4.620E+00
   20.700   4.501E+00
   20.800   4.385E+00
   20.900   4.274E+00
   21.000   4.166E+00
   21.100   4.060E+00
   21.200   3.958E+00
   21.300   3.858E+00
   21.400   3.760E+00
   21.500   3.664E+00
   21.600   3.570E+00
   21.700   3.477E+00
   21.800   3.387E+00
   21.900   3.298E+00
   22.000   3.210E+00
   22.100   3.124E+00
   22.200   3.040E+00
   22.300   2.958E+00
   22.400   2.878E+00
   22.500   2.800E+00
   22.600   2.724E+00
   22.700   2.650E+00
   22.800   2.578E+00
   22.900   2.508E+00
   23.000   2.440E+00
   23.100   2.374E+00
   23.200   2.310E+00
   23.300   2.247E+00
   23.400   2.187E+00
   23.500   2.128E+00
   23.600   2.072E+00
   23.700   2.017E+00
   23.800   1.964E+00
   23.900   1.913E+00
   24.000   1.864E+00
   24.100   1.817E+00
   24.200   1.771E+00
   24.300   1.728E+00
   24.400   1.685E+00
   24.500   1.644E+00
   24.600   1.605E+00
   24.700   1.567E+00
   24.800   1.531E+00
   24.900   1.496E+00
   25.000   1.462E+00
   25.100   1.429E+00
   25.200   1.398E+00
   25.300   1.367E+00
   25.400   1.337E+00
   25.500   1.309E+00
   25.600   1.281E+00
   25.700   1.254E+00
   25.800   1.228E+00
   25.900   1.202E+00
   26.000   1.177E+00
   26.100   1.153E+00
   26.200   1.129E+00
   26.300   1.106E+00
   26.400   1.084E+00
   26.500   1.062E+00
   26.600   1.041E+00
   26.700   1.021E+00
   26.800   1.002E+00
   26.900   9.827E-01
   27.000   9.644E-01
   27.100   9.468E-01
   27.200   9.298E-01
   27.300   9.133E-01
   27.400   8.975E-01
   27.500   8.822E-01
   27.600   8.674E-01
   27.700   8.531E-01
   27.800   8.393E-01
   27.900   8.259E-01
   28.000   8.130E-01
   28.100   8.004E-01
   28.200   7.883E-01
   28.300   7.765E-01
   28.400   7.650E-01
   28.500   7.539E-01
   28.600   7.431E-01
   28.700   7.326E-01
   28.800   7.223E-01
   28.900   7.124E-01
   29.000   7.027E-01
   29.100   6.933E-01
   29.200   6.841E-01
   29.300   6.751E-01
   29.400   6.663E-01
   29.500   6.578E-01
   29.600   6.494E-01
   29.700   6.413E-01
   29.800   6.333E-01
   29.900   6.255E-01
   30.000   6.179E-01
 
 Z=  56 A= 147  D1M-QRPA-Inter
 E[MeV]  fQRPA[mb/MeV]
    0.100   2.286E-02
    0.200   2.989E-02
    0.300   3.370E-02
    0.400   3.633E-02
    0.500   3.842E-02
    0.600   4.023E-02
    0.700   4.193E-02
    0.800   4.363E-02
    0.900   4.541E-02
    1.000   4.733E-02
    1.100   4.946E-02
    1.200   5.182E-02
    1.300   5.445E-02
    1.400   5.738E-02
    1.500   6.064E-02
    1.600   6.424E-02
    1.700   6.822E-02
    1.800   7.259E-02
    1.900   7.738E-02
    2.000   8.261E-02
    2.100   8.828E-02
    2.200   9.439E-02
    2.300   1.010E-01
    2.400   1.080E-01
    2.500   1.156E-01
    2.600   1.236E-01
    2.700   1.323E-01
    2.800   1.417E-01
    2.900   1.517E-01
    3.000   1.626E-01
    3.100   1.744E-01
    3.200   1.873E-01
    3.300   2.012E-01
    3.400   2.164E-01
    3.500   2.330E-01
    3.600   2.510E-01
    3.700   2.707E-01
    3.800   2.922E-01
    3.900   3.157E-01
    4.000   3.413E-01
    4.100   3.691E-01
    4.200   3.991E-01
    4.300   4.312E-01
    4.400   4.653E-01
    4.500   5.012E-01
    4.600   5.383E-01
    4.700   5.764E-01
    4.800   6.151E-01
    4.900   6.540E-01
    5.000   6.928E-01
    5.100   7.314E-01
    5.200   7.696E-01
    5.300   8.071E-01
    5.400   8.441E-01
    5.500   8.805E-01
    5.600   9.166E-01
    5.700   9.524E-01
    5.800   9.883E-01
    5.900   1.024E+00
    6.000   1.061E+00
    6.100   1.098E+00
    6.200   1.136E+00
    6.300   1.174E+00
    6.400   1.215E+00
    6.500   1.257E+00
    6.600   1.302E+00
    6.700   1.351E+00
    6.800   1.405E+00
    6.900   1.463E+00
    7.000   1.526E+00
    7.100   1.595E+00
    7.200   1.668E+00
    7.300   1.746E+00
    7.400   1.828E+00
    7.500   1.914E+00
    7.600   2.003E+00
    7.700   2.095E+00
    7.800   2.190E+00
    7.900   2.287E+00
    8.000   2.388E+00
    8.100   2.493E+00
    8.200   2.603E+00
    8.300   2.719E+00
    8.400   2.844E+00
    8.500   2.978E+00
    8.600   3.122E+00
    8.700   3.278E+00
    8.800   3.446E+00
    8.900   3.627E+00
    9.000   3.820E+00
    9.100   4.028E+00
    9.200   4.249E+00
    9.300   4.486E+00
    9.400   4.739E+00
    9.500   5.010E+00
    9.600   5.301E+00
    9.700   5.615E+00
    9.800   5.955E+00
    9.900   6.325E+00
   10.000   6.728E+00
   10.100   7.167E+00
   10.200   7.647E+00
   10.300   8.170E+00
   10.400   8.739E+00
   10.500   9.355E+00
   10.600   1.001E+01
   10.700   1.071E+01
   10.800   1.144E+01
   10.900   1.219E+01
   11.000   1.293E+01
   11.100   1.366E+01
   11.200   1.434E+01
   11.300   1.496E+01
   11.400   1.551E+01
   11.500   1.596E+01
   11.600   1.632E+01
   11.700   1.658E+01
   11.800   1.677E+01
   11.900   1.689E+01
   12.000   1.697E+01
   12.100   1.702E+01
   12.200   1.706E+01
   12.300   1.709E+01
   12.400   1.712E+01
   12.500   1.717E+01
   12.600   1.724E+01
   12.700   1.732E+01
   12.800   1.741E+01
   12.900   1.752E+01
   13.000   1.764E+01
   13.100   1.775E+01
   13.200   1.786E+01
   13.300   1.793E+01
   13.400   1.798E+01
   13.500   1.800E+01
   13.600   1.797E+01
   13.700   1.790E+01
   13.800   1.778E+01
   13.900   1.763E+01
   14.000   1.745E+01
   14.100   1.725E+01
   14.200   1.704E+01
   14.300   1.683E+01
   14.400   1.663E+01
   14.500   1.645E+01
   14.600   1.627E+01
   14.700   1.609E+01
   14.800   1.590E+01
   14.900   1.569E+01
   15.000   1.545E+01
   15.100   1.517E+01
   15.200   1.486E+01
   15.300   1.451E+01
   15.400   1.415E+01
   15.500   1.377E+01
   15.600   1.338E+01
   15.700   1.300E+01
   15.800   1.262E+01
   15.900   1.225E+01
   16.000   1.189E+01
   16.100   1.155E+01
   16.200   1.123E+01
   16.300   1.093E+01
   16.400   1.064E+01
   16.500   1.038E+01
   16.600   1.012E+01
   16.700   9.878E+00
   16.800   9.641E+00
   16.900   9.410E+00
   17.000   9.182E+00
   17.100   8.957E+00
   17.200   8.733E+00
   17.300   8.510E+00
   17.400   8.288E+00
   17.500   8.069E+00
   17.600   7.854E+00
   17.700   7.644E+00
   17.800   7.442E+00
   17.900   7.246E+00
   18.000   7.058E+00
   18.100   6.876E+00
   18.200   6.699E+00
   18.300   6.525E+00
   18.400   6.354E+00
   18.500   6.187E+00
   18.600   6.024E+00
   18.700   5.865E+00
   18.800   5.709E+00
   18.900   5.557E+00
   19.000   5.406E+00
   19.100   5.258E+00
   19.200   5.112E+00
   19.300   4.968E+00
   19.400   4.826E+00
   19.500   4.686E+00
   19.600   4.547E+00
   19.700   4.409E+00
   19.800   4.273E+00
   19.900   4.138E+00
   20.000   4.005E+00
   20.100   3.874E+00
   20.200   3.745E+00
   20.300   3.619E+00
   20.400   3.497E+00
   20.500   3.378E+00
   20.600   3.264E+00
   20.700   3.154E+00
   20.800   3.048E+00
   20.900   2.947E+00
   21.000   2.850E+00
   21.100   2.758E+00
   21.200   2.670E+00
   21.300   2.585E+00
   21.400   2.504E+00
   21.500   2.426E+00
   21.600   2.350E+00
   21.700   2.278E+00
   21.800   2.208E+00
   21.900   2.139E+00
   22.000   2.073E+00
   22.100   2.009E+00
   22.200   1.946E+00
   22.300   1.885E+00
   22.400   1.826E+00
   22.500   1.770E+00
   22.600   1.715E+00
   22.700   1.663E+00
   22.800   1.613E+00
   22.900   1.565E+00
   23.000   1.520E+00
   23.100   1.476E+00
   23.200   1.435E+00
   23.300   1.395E+00
   23.400   1.357E+00
   23.500   1.321E+00
   23.600   1.287E+00
   23.700   1.254E+00
   23.800   1.222E+00
   23.900   1.192E+00
   24.000   1.163E+00
   24.100   1.135E+00
   24.200   1.108E+00
   24.300   1.083E+00
   24.400   1.058E+00
   24.500   1.035E+00
   24.600   1.012E+00
   24.700   9.903E-01
   24.800   9.692E-01
   24.900   9.490E-01
   25.000   9.295E-01
   25.100   9.106E-01
   25.200   8.924E-01
   25.300   8.748E-01
   25.400   8.578E-01
   25.500   8.413E-01
   25.600   8.253E-01
   25.700   8.097E-01
   25.800   7.946E-01
   25.900   7.799E-01
   26.000   7.657E-01
   26.100   7.518E-01
   26.200   7.383E-01
   26.300   7.251E-01
   26.400   7.124E-01
   26.500   7.000E-01
   26.600   6.879E-01
   26.700   6.762E-01
   26.800   6.649E-01
   26.900   6.539E-01
   27.000   6.432E-01
   27.100   6.328E-01
   27.200   6.228E-01
   27.300   6.131E-01
   27.400   6.036E-01
   27.500   5.944E-01
   27.600   5.855E-01
   27.700   5.769E-01
   27.800   5.685E-01
   27.900   5.603E-01
   28.000   5.524E-01
   28.100   5.446E-01
   28.200   5.371E-01
   28.300   5.297E-01
   28.400   5.226E-01
   28.500   5.156E-01
   28.600   5.088E-01
   28.700   5.022E-01
   28.800   4.957E-01
   28.900   4.894E-01
   29.000   4.832E-01
   29.100   4.772E-01
   29.200   4.713E-01
   29.300   4.655E-01
   29.400   4.599E-01
   29.500   4.544E-01
   29.600   4.490E-01
   29.700   4.437E-01
   29.800   4.385E-01
   29.900   4.335E-01
   30.000   4.285E-01
 
 Z=  56 A= 148  D1M-QRPA
   E[MeV]   fQRPA[mb/MeV]
    0.100   3.793E-02
    0.200   4.123E-02
    0.300   4.333E-02
    0.400   4.459E-02
    0.500   4.541E-02
    0.600   4.601E-02
    0.700   4.654E-02
    0.800   4.711E-02
    0.900   4.779E-02
    1.000   4.866E-02
    1.100   4.975E-02
    1.200   5.110E-02
    1.300   5.274E-02
    1.400   5.469E-02
    1.500   5.696E-02
    1.600   5.956E-02
    1.700   6.253E-02
    1.800   6.588E-02
    1.900   6.964E-02
    2.000   7.381E-02
    2.100   7.838E-02
    2.200   8.336E-02
    2.300   8.875E-02
    2.400   9.455E-02
    2.500   1.008E-01
    2.600   1.075E-01
    2.700   1.148E-01
    2.800   1.228E-01
    2.900   1.315E-01
    3.000   1.410E-01
    3.100   1.515E-01
    3.200   1.632E-01
    3.300   1.760E-01
    3.400   1.902E-01
    3.500   2.059E-01
    3.600   2.234E-01
    3.700   2.428E-01
    3.800   2.643E-01
    3.900   2.881E-01
    4.000   3.144E-01
    4.100   3.434E-01
    4.200   3.750E-01
    4.300   4.091E-01
    4.400   4.453E-01
    4.500   4.829E-01
    4.600   5.214E-01
    4.700   5.601E-01
    4.800   5.982E-01
    4.900   6.353E-01
    5.000   6.711E-01
    5.100   7.054E-01
    5.200   7.382E-01
    5.300   7.693E-01
    5.400   7.992E-01
    5.500   8.279E-01
    5.600   8.561E-01
    5.700   8.840E-01
    5.800   9.120E-01
    5.900   9.404E-01
    6.000   9.694E-01
    6.100   9.989E-01
    6.200   1.029E+00
    6.300   1.061E+00
    6.400   1.094E+00
    6.500   1.130E+00
    6.600   1.169E+00
    6.700   1.213E+00
    6.800   1.263E+00
    6.900   1.319E+00
    7.000   1.381E+00
    7.100   1.450E+00
    7.200   1.524E+00
    7.300   1.603E+00
    7.400   1.686E+00
    7.500   1.771E+00
    7.600   1.858E+00
    7.700   1.946E+00
    7.800   2.035E+00
    7.900   2.125E+00
    8.000   2.217E+00
    8.100   2.313E+00
    8.200   2.414E+00
    8.300   2.523E+00
    8.400   2.642E+00
    8.500   2.773E+00
    8.600   2.919E+00
    8.700   3.079E+00
    8.800   3.256E+00
    8.900   3.450E+00
    9.000   3.661E+00
    9.100   3.889E+00
    9.200   4.135E+00
    9.300   4.400E+00
    9.400   4.687E+00
    9.500   4.997E+00
    9.600   5.334E+00
    9.700   5.704E+00
    9.800   6.110E+00
    9.900   6.559E+00
   10.000   7.055E+00
   10.100   7.606E+00
   10.200   8.217E+00
   10.300   8.894E+00
   10.400   9.639E+00
   10.500   1.045E+01
   10.600   1.133E+01
   10.700   1.225E+01
   10.800   1.320E+01
   10.900   1.414E+01
   11.000   1.504E+01
   11.100   1.586E+01
   11.200   1.654E+01
   11.300   1.707E+01
   11.400   1.741E+01
   11.500   1.756E+01
   11.600   1.753E+01
   11.700   1.735E+01
   11.800   1.707E+01
   11.900   1.674E+01
   12.000   1.641E+01
   12.100   1.610E+01
   12.200   1.583E+01
   12.300   1.564E+01
   12.400   1.551E+01
   12.500   1.546E+01
   12.600   1.548E+01
   12.700   1.556E+01
   12.800   1.569E+01
   12.900   1.586E+01
   13.000   1.605E+01
   13.100   1.624E+01
   13.200   1.640E+01
   13.300   1.652E+01
   13.400   1.659E+01
   13.500   1.658E+01
   13.600   1.651E+01
   13.700   1.636E+01
   13.800   1.614E+01
   13.900   1.588E+01
   14.000   1.557E+01
   14.100   1.526E+01
   14.200   1.496E+01
   14.300   1.469E+01
   14.400   1.445E+01
   14.500   1.426E+01
   14.600   1.410E+01
   14.700   1.396E+01
   14.800   1.380E+01
   14.900   1.362E+01
   15.000   1.338E+01
   15.100   1.308E+01
   15.200   1.272E+01
   15.300   1.230E+01
   15.400   1.184E+01
   15.500   1.136E+01
   15.600   1.088E+01
   15.700   1.041E+01
   15.800   9.954E+00
   15.900   9.529E+00
   16.000   9.138E+00
   16.100   8.786E+00
   16.200   8.474E+00
   16.300   8.202E+00
   16.400   7.967E+00
   16.500   7.765E+00
   16.600   7.591E+00
   16.700   7.436E+00
   16.800   7.294E+00
   16.900   7.161E+00
   17.000   7.029E+00
   17.100   6.896E+00
   17.200   6.758E+00
   17.300   6.612E+00
   17.400   6.458E+00
   17.500   6.297E+00
   17.600   6.129E+00
   17.700   5.959E+00
   17.800   5.788E+00
   17.900   5.620E+00
   18.000   5.454E+00
   18.100   5.289E+00
   18.200   5.127E+00
   18.300   4.966E+00
   18.400   4.808E+00
   18.500   4.653E+00
   18.600   4.502E+00
   18.700   4.358E+00
   18.800   4.219E+00
   18.900   4.085E+00
   19.000   3.955E+00
   19.100   3.828E+00
   19.200   3.705E+00
   19.300   3.585E+00
   19.400   3.467E+00
   19.500   3.351E+00
   19.600   3.236E+00
   19.700   3.122E+00
   19.800   3.009E+00
   19.900   2.896E+00
   20.000   2.786E+00
   20.100   2.676E+00
   20.200   2.569E+00
   20.300   2.464E+00
   20.400   2.362E+00
   20.500   2.264E+00
   20.600   2.169E+00
   20.700   2.079E+00
   20.800   1.993E+00
   20.900   1.911E+00
   21.000   1.834E+00
   21.100   1.762E+00
   21.200   1.694E+00
   21.300   1.629E+00
   21.400   1.568E+00
   21.500   1.511E+00
   21.600   1.456E+00
   21.700   1.403E+00
   21.800   1.353E+00
   21.900   1.305E+00
   22.000   1.259E+00
   22.100   1.215E+00
   22.200   1.172E+00
   22.300   1.130E+00
   22.400   1.090E+00
   22.500   1.052E+00
   22.600   1.016E+00
   22.700   9.818E-01
   22.800   9.494E-01
   22.900   9.190E-01
   23.000   8.904E-01
   23.100   8.635E-01
   23.200   8.383E-01
   23.300   8.146E-01
   23.400   7.923E-01
   23.500   7.713E-01
   23.600   7.515E-01
   23.700   7.327E-01
   23.800   7.150E-01
   23.900   6.982E-01
   24.000   6.822E-01
   24.100   6.669E-01
   24.200   6.524E-01
   24.300   6.385E-01
   24.400   6.252E-01
   24.500   6.125E-01
   24.600   6.002E-01
   24.700   5.885E-01
   24.800   5.772E-01
   24.900   5.663E-01
   25.000   5.559E-01
   25.100   5.458E-01
   25.200   5.360E-01
   25.300   5.266E-01
   25.400   5.175E-01
   25.500   5.087E-01
   25.600   5.001E-01
   25.700   4.918E-01
   25.800   4.838E-01
   25.900   4.760E-01
   26.000   4.685E-01
   26.100   4.611E-01
   26.200   4.540E-01
   26.300   4.471E-01
   26.400   4.404E-01
   26.500   4.338E-01
   26.600   4.274E-01
   26.700   4.212E-01
   26.800   4.151E-01
   26.900   4.092E-01
   27.000   4.035E-01
   27.100   3.979E-01
   27.200   3.924E-01
   27.300   3.871E-01
   27.400   3.818E-01
   27.500   3.768E-01
   27.600   3.718E-01
   27.700   3.669E-01
   27.800   3.622E-01
   27.900   3.575E-01
   28.000   3.530E-01
   28.100   3.486E-01
   28.200   3.442E-01
   28.300   3.400E-01
   28.400   3.358E-01
   28.500   3.317E-01
   28.600   3.277E-01
   28.700   3.238E-01
   28.800   3.200E-01
   28.900   3.162E-01
   29.000   3.126E-01
   29.100   3.090E-01
   29.200   3.054E-01
   29.300   3.020E-01
   29.400   2.986E-01
   29.500   2.952E-01
   29.600   2.920E-01
   29.700   2.888E-01
   29.800   2.856E-01
   29.900   2.825E-01
   30.000   2.795E-01
 
 Z=  56 A= 149  D1M-QRPA-Inter
 E[MeV]  fQRPA[mb/MeV]
    0.100   1.746E-02
    0.200   3.194E-02
    0.300   4.211E-02
    0.400   4.890E-02
    0.500   5.348E-02
    0.600   5.664E-02
    0.700   5.891E-02
    0.800   6.060E-02
    0.900   6.195E-02
    1.000   6.312E-02
    1.100   6.425E-02
    1.200   6.542E-02
    1.300   6.671E-02
    1.400   6.816E-02
    1.500   6.983E-02
    1.600   7.175E-02
    1.700   7.396E-02
    1.800   7.649E-02
    1.900   7.937E-02
    2.000   8.263E-02
    2.100   8.628E-02
    2.200   9.034E-02
    2.300   9.481E-02
    2.400   9.972E-02
    2.500   1.051E-01
    2.600   1.110E-01
    2.700   1.174E-01
    2.800   1.243E-01
    2.900   1.319E-01
    3.000   1.402E-01
    3.100   1.491E-01
    3.200   1.589E-01
    3.300   1.695E-01
    3.400   1.812E-01
    3.500   1.939E-01
    3.600   2.078E-01
    3.700   2.230E-01
    3.800   2.398E-01
    3.900   2.583E-01
    4.000   2.786E-01
    4.100   3.009E-01
    4.200   3.253E-01
    4.300   3.518E-01
    4.400   3.802E-01
    4.500   4.105E-01
    4.600   4.424E-01
    4.700   4.755E-01
    4.800   5.096E-01
    4.900   5.443E-01
    5.000   5.793E-01
    5.100   6.144E-01
    5.200   6.492E-01
    5.300   6.835E-01
    5.400   7.171E-01
    5.500   7.501E-01
    5.600   7.825E-01
    5.700   8.144E-01
    5.800   8.461E-01
    5.900   8.778E-01
    6.000   9.096E-01
    6.100   9.421E-01
    6.200   9.754E-01
    6.300   1.010E+00
    6.400   1.046E+00
    6.500   1.085E+00
    6.600   1.126E+00
    6.700   1.170E+00
    6.800   1.218E+00
    6.900   1.269E+00
    7.000   1.324E+00
    7.100   1.383E+00
    7.200   1.445E+00
    7.300   1.511E+00
    7.400   1.579E+00
    7.500   1.652E+00
    7.600   1.727E+00
    7.700   1.807E+00
    7.800   1.890E+00
    7.900   1.976E+00
    8.000   2.067E+00
    8.100   2.161E+00
    8.200   2.261E+00
    8.300   2.365E+00
    8.400   2.476E+00
    8.500   2.595E+00
    8.600   2.722E+00
    8.700   2.858E+00
    8.800   3.006E+00
    8.900   3.166E+00
    9.000   3.339E+00
    9.100   3.527E+00
    9.200   3.731E+00
    9.300   3.954E+00
    9.400   4.198E+00
    9.500   4.464E+00
    9.600   4.757E+00
    9.700   5.078E+00
    9.800   5.432E+00
    9.900   5.821E+00
   10.000   6.249E+00
   10.100   6.721E+00
   10.200   7.241E+00
   10.300   7.813E+00
   10.400   8.440E+00
   10.500   9.125E+00
   10.600   9.865E+00
   10.700   1.066E+01
   10.800   1.149E+01
   10.900   1.236E+01
   11.000   1.323E+01
   11.100   1.408E+01
   11.200   1.488E+01
   11.300   1.560E+01
   11.400   1.621E+01
   11.500   1.667E+01
   11.600   1.699E+01
   11.700   1.716E+01
   11.800   1.719E+01
   11.900   1.712E+01
   12.000   1.697E+01
   12.100   1.677E+01
   12.200   1.656E+01
   12.300   1.637E+01
   12.400   1.620E+01
   12.500   1.608E+01
   12.600   1.601E+01
   12.700   1.600E+01
   12.800   1.604E+01
   12.900   1.613E+01
   13.000   1.626E+01
   13.100   1.641E+01
   13.200   1.656E+01
   13.300   1.671E+01
   13.400   1.683E+01
   13.500   1.692E+01
   13.600   1.695E+01
   13.700   1.693E+01
   13.800   1.684E+01
   13.900   1.671E+01
   14.000   1.652E+01
   14.100   1.631E+01
   14.200   1.607E+01
   14.300   1.583E+01
   14.400   1.559E+01
   14.500   1.535E+01
   14.600   1.513E+01
   14.700   1.490E+01
   14.800   1.467E+01
   14.900   1.441E+01
   15.000   1.412E+01
   15.100   1.380E+01
   15.200   1.345E+01
   15.300   1.308E+01
   15.400   1.270E+01
   15.500   1.232E+01
   15.600   1.193E+01
   15.700   1.156E+01
   15.800   1.119E+01
   15.900   1.084E+01
   16.000   1.051E+01
   16.100   1.020E+01
   16.200   9.907E+00
   16.300   9.634E+00
   16.400   9.378E+00
   16.500   9.138E+00
   16.600   8.908E+00
   16.700   8.683E+00
   16.800   8.460E+00
   16.900   8.233E+00
   17.000   8.000E+00
   17.100   7.759E+00
   17.200   7.507E+00
   17.300   7.245E+00
   17.400   6.972E+00
   17.500   6.691E+00
   17.600   6.405E+00
   17.700   6.119E+00
   17.800   5.838E+00
   17.900   5.564E+00
   18.000   5.301E+00
   18.100   5.050E+00
   18.200   4.811E+00
   18.300   4.585E+00
   18.400   4.371E+00
   18.500   4.171E+00
   18.600   3.984E+00
   18.700   3.809E+00
   18.800   3.646E+00
   18.900   3.493E+00
   19.000   3.350E+00
   19.100   3.215E+00
   19.200   3.088E+00
   19.300   2.968E+00
   19.400   2.854E+00
   19.500   2.746E+00
   19.600   2.643E+00
   19.700   2.544E+00
   19.800   2.448E+00
   19.900   2.357E+00
   20.000   2.269E+00
   20.100   2.184E+00
   20.200   2.102E+00
   20.300   2.024E+00
   20.400   1.949E+00
   20.500   1.877E+00
   20.600   1.808E+00
   20.700   1.743E+00
   20.800   1.681E+00
   20.900   1.622E+00
   21.000   1.566E+00
   21.100   1.513E+00
   21.200   1.463E+00
   21.300   1.416E+00
   21.400   1.371E+00
   21.500   1.328E+00
   21.600   1.287E+00
   21.700   1.248E+00
   21.800   1.210E+00
   21.900   1.174E+00
   22.000   1.140E+00
   22.100   1.106E+00
   22.200   1.074E+00
   22.300   1.043E+00
   22.400   1.013E+00
   22.500   9.842E-01
   22.600   9.568E-01
   22.700   9.305E-01
   22.800   9.055E-01
   22.900   8.818E-01
   23.000   8.591E-01
   23.100   8.376E-01
   23.200   8.172E-01
   23.300   7.977E-01
   23.400   7.792E-01
   23.500   7.615E-01
   23.600   7.447E-01
   23.700   7.286E-01
   23.800   7.131E-01
   23.900   6.984E-01
   24.000   6.842E-01
   24.100   6.706E-01
   24.200   6.575E-01
   24.300   6.449E-01
   24.400   6.328E-01
   24.500   6.211E-01
   24.600   6.098E-01
   24.700   5.988E-01
   24.800   5.883E-01
   24.900   5.781E-01
   25.000   5.682E-01
   25.100   5.586E-01
   25.200   5.493E-01
   25.300   5.403E-01
   25.400   5.315E-01
   25.500   5.230E-01
   25.600   5.148E-01
   25.700   5.067E-01
   25.800   4.989E-01
   25.900   4.913E-01
   26.000   4.840E-01
   26.100   4.768E-01
   26.200   4.697E-01
   26.300   4.629E-01
   26.400   4.563E-01
   26.500   4.498E-01
   26.600   4.434E-01
   26.700   4.373E-01
   26.800   4.312E-01
   26.900   4.253E-01
   27.000   4.196E-01
   27.100   4.140E-01
   27.200   4.085E-01
   27.300   4.031E-01
   27.400   3.979E-01
   27.500   3.927E-01
   27.600   3.877E-01
   27.700   3.828E-01
   27.800   3.780E-01
   27.900   3.733E-01
   28.000   3.687E-01
   28.100   3.642E-01
   28.200   3.598E-01
   28.300   3.555E-01
   28.400   3.512E-01
   28.500   3.471E-01
   28.600   3.430E-01
   28.700   3.390E-01
   28.800   3.351E-01
   28.900   3.313E-01
   29.000   3.275E-01
   29.100   3.238E-01
   29.200   3.202E-01
   29.300   3.166E-01
   29.400   3.131E-01
   29.500   3.097E-01
   29.600   3.064E-01
   29.700   3.031E-01
   29.800   2.998E-01
   29.900   2.966E-01
   30.000   2.935E-01
 
 Z=  56 A= 150  D1M-QRPA
   E[MeV]   fQRPA[mb/MeV]
    0.100   7.969E-03
    0.200   2.455E-02
    0.300   4.059E-02
    0.400   5.319E-02
    0.500   6.248E-02
    0.600   6.917E-02
    0.700   7.395E-02
    0.800   7.732E-02
    0.900   7.964E-02
    1.000   8.122E-02
    1.100   8.230E-02
    1.200   8.306E-02
    1.300   8.368E-02
    1.400   8.426E-02
    1.500   8.492E-02
    1.600   8.573E-02
    1.700   8.677E-02
    1.800   8.808E-02
    1.900   8.973E-02
    2.000   9.176E-02
    2.100   9.421E-02
    2.200   9.710E-02
    2.300   1.005E-01
    2.400   1.043E-01
    2.500   1.087E-01
    2.600   1.136E-01
    2.700   1.190E-01
    2.800   1.249E-01
    2.900   1.313E-01
    3.000   1.382E-01
    3.100   1.456E-01
    3.200   1.535E-01
    3.300   1.620E-01
    3.400   1.711E-01
    3.500   1.810E-01
    3.600   1.917E-01
    3.700   2.032E-01
    3.800   2.159E-01
    3.900   2.297E-01
    4.000   2.449E-01
    4.100   2.616E-01
    4.200   2.799E-01
    4.300   3.000E-01
    4.400   3.221E-01
    4.500   3.461E-01
    4.600   3.722E-01
    4.700   4.004E-01
    4.800   4.306E-01
    4.900   4.626E-01
    5.000   4.961E-01
    5.100   5.307E-01
    5.200   5.663E-01
    5.300   6.022E-01
    5.400   6.383E-01
    5.500   6.741E-01
    5.600   7.095E-01
    5.700   7.443E-01
    5.800   7.786E-01
    5.900   8.126E-01
    6.000   8.467E-01
    6.100   8.813E-01
    6.200   9.169E-01
    6.300   9.539E-01
    6.400   9.925E-01
    6.500   1.033E+00
    6.600   1.075E+00
    6.700   1.119E+00
    6.800   1.165E+00
    6.900   1.211E+00
    7.000   1.259E+00
    7.100   1.309E+00
    7.200   1.359E+00
    7.300   1.412E+00
    7.400   1.468E+00
    7.500   1.528E+00
    7.600   1.593E+00
    7.700   1.664E+00
    7.800   1.741E+00
    7.900   1.823E+00
    8.000   1.911E+00
    8.100   2.004E+00
    8.200   2.100E+00
    8.300   2.199E+00
    8.400   2.302E+00
    8.500   2.408E+00
    8.600   2.517E+00
    8.700   2.631E+00
    8.800   2.752E+00
    8.900   2.881E+00
    9.000   3.020E+00
    9.100   3.172E+00
    9.200   3.340E+00
    9.300   3.524E+00
    9.400   3.729E+00
    9.500   3.956E+00
    9.600   4.207E+00
    9.700   4.484E+00
    9.800   4.789E+00
    9.900   5.124E+00
   10.000   5.490E+00
   10.100   5.891E+00
   10.200   6.329E+00
   10.300   6.807E+00
   10.400   7.330E+00
   10.500   7.900E+00
   10.600   8.522E+00
   10.700   9.198E+00
   10.800   9.927E+00
   10.900   1.071E+01
   11.000   1.154E+01
   11.100   1.240E+01
   11.200   1.327E+01
   11.300   1.414E+01
   11.400   1.496E+01
   11.500   1.571E+01
   11.600   1.634E+01
   11.700   1.683E+01
   11.800   1.717E+01
   11.900   1.736E+01
   12.000   1.740E+01
   12.100   1.734E+01
   12.200   1.718E+01
   12.300   1.699E+01
   12.400   1.678E+01
   12.500   1.658E+01
   12.600   1.642E+01
   12.700   1.631E+01
   12.800   1.626E+01
   12.900   1.626E+01
   13.000   1.633E+01
   13.100   1.644E+01
   13.200   1.659E+01
   13.300   1.676E+01
   13.400   1.694E+01
   13.500   1.711E+01
   13.600   1.726E+01
   13.700   1.737E+01
   13.800   1.743E+01
   13.900   1.744E+01
   14.000   1.739E+01
   14.100   1.728E+01
   14.200   1.712E+01
   14.300   1.691E+01
   14.400   1.667E+01
   14.500   1.639E+01
   14.600   1.610E+01
   14.700   1.578E+01
   14.800   1.546E+01
   14.900   1.512E+01
   15.000   1.478E+01
   15.100   1.445E+01
   15.200   1.412E+01
   15.300   1.381E+01
   15.400   1.351E+01
   15.500   1.324E+01
   15.600   1.298E+01
   15.700   1.273E+01
   15.800   1.248E+01
   15.900   1.224E+01
   16.000   1.199E+01
   16.100   1.174E+01
   16.200   1.149E+01
   16.300   1.122E+01
   16.400   1.095E+01
   16.500   1.067E+01
   16.600   1.037E+01
   16.700   1.006E+01
   16.800   9.731E+00
   16.900   9.389E+00
   17.000   9.031E+00
   17.100   8.659E+00
   17.200   8.272E+00
   17.300   7.873E+00
   17.400   7.465E+00
   17.500   7.051E+00
   17.600   6.639E+00
   17.700   6.233E+00
   17.800   5.839E+00
   17.900   5.464E+00
   18.000   5.111E+00
   18.100   4.782E+00
   18.200   4.477E+00
   18.300   4.198E+00
   18.400   3.942E+00
   18.500   3.709E+00
   18.600   3.496E+00
   18.700   3.302E+00
   18.800   3.125E+00
   18.900   2.963E+00
   19.000   2.814E+00
   19.100   2.678E+00
   19.200   2.553E+00
   19.300   2.438E+00
   19.400   2.331E+00
   19.500   2.232E+00
   19.600   2.141E+00
   19.700   2.056E+00
   19.800   1.976E+00
   19.900   1.902E+00
   20.000   1.833E+00
   20.100   1.768E+00
   20.200   1.706E+00
   20.300   1.649E+00
   20.400   1.595E+00
   20.500   1.544E+00
   20.600   1.496E+00
   20.700   1.450E+00
   20.800   1.407E+00
   20.900   1.365E+00
   21.000   1.326E+00
   21.100   1.289E+00
   21.200   1.254E+00
   21.300   1.220E+00
   21.400   1.188E+00
   21.500   1.158E+00
   21.600   1.128E+00
   21.700   1.100E+00
   21.800   1.073E+00
   21.900   1.048E+00
   22.000   1.023E+00
   22.100   9.992E-01
   22.200   9.764E-01
   22.300   9.545E-01
   22.400   9.334E-01
   22.500   9.132E-01
   22.600   8.936E-01
   22.700   8.748E-01
   22.800   8.566E-01
   22.900   8.391E-01
   23.000   8.222E-01
   23.100   8.059E-01
   23.200   7.901E-01
   23.300   7.748E-01
   23.400   7.601E-01
   23.500   7.458E-01
   23.600   7.319E-01
   23.700   7.185E-01
   23.800   7.055E-01
   23.900   6.929E-01
   24.000   6.807E-01
   24.100   6.688E-01
   24.200   6.573E-01
   24.300   6.461E-01
   24.400   6.352E-01
   24.500   6.247E-01
   24.600   6.144E-01
   24.700   6.044E-01
   24.800   5.947E-01
   24.900   5.852E-01
   25.000   5.760E-01
   25.100   5.671E-01
   25.200   5.583E-01
   25.300   5.498E-01
   25.400   5.415E-01
   25.500   5.334E-01
   25.600   5.255E-01
   25.700   5.179E-01
   25.800   5.103E-01
   25.900   5.030E-01
   26.000   4.959E-01
   26.100   4.889E-01
   26.200   4.821E-01
   26.300   4.754E-01
   26.400   4.689E-01
   26.500   4.625E-01
   26.600   4.563E-01
   26.700   4.502E-01
   26.800   4.443E-01
   26.900   4.385E-01
   27.000   4.328E-01
   27.100   4.272E-01
   27.200   4.218E-01
   27.300   4.164E-01
   27.400   4.112E-01
   27.500   4.061E-01
   27.600   4.011E-01
   27.700   3.961E-01
   27.800   3.913E-01
   27.900   3.866E-01
   28.000   3.820E-01
   28.100   3.775E-01
   28.200   3.730E-01
   28.300   3.687E-01
   28.400   3.644E-01
   28.500   3.602E-01
   28.600   3.561E-01
   28.700   3.520E-01
   28.800   3.481E-01
   28.900   3.442E-01
   29.000   3.404E-01
   29.100   3.366E-01
   29.200   3.329E-01
   29.300   3.293E-01
   29.400   3.258E-01
   29.500   3.223E-01
   29.600   3.189E-01
   29.700   3.155E-01
   29.800   3.122E-01
   29.900   3.089E-01
   30.000   3.057E-01
 
