 Z=  58 A= 140  D1M-QRPA
   E[MeV]   fQRPA[mb/MeV]
    0.100   7.445E-05
    0.200   2.979E-04
    0.300   6.706E-04
    0.400   1.193E-03
    0.500   1.866E-03
    0.600   2.689E-03
    0.700   3.665E-03
    0.800   4.793E-03
    0.900   6.076E-03
    1.000   7.515E-03
    1.100   9.112E-03
    1.200   1.087E-02
    1.300   1.278E-02
    1.400   1.486E-02
    1.500   1.711E-02
    1.600   1.953E-02
    1.700   2.211E-02
    1.800   2.487E-02
    1.900   2.781E-02
    2.000   3.093E-02
    2.100   3.424E-02
    2.200   3.773E-02
    2.300   4.142E-02
    2.400   4.531E-02
    2.500   4.940E-02
    2.600   5.369E-02
    2.700   5.820E-02
    2.800   6.293E-02
    2.900   6.789E-02
    3.000   7.307E-02
    3.100   7.850E-02
    3.200   8.417E-02
    3.300   9.010E-02
    3.400   9.628E-02
    3.500   1.027E-01
    3.600   1.095E-01
    3.700   1.165E-01
    3.800   1.238E-01
    3.900   1.315E-01
    4.000   1.394E-01
    4.100   1.477E-01
    4.200   1.563E-01
    4.300   1.653E-01
    4.400   1.747E-01
    4.500   1.845E-01
    4.600   1.946E-01
    4.700   2.052E-01
    4.800   2.162E-01
    4.900   2.277E-01
    5.000   2.397E-01
    5.100   2.521E-01
    5.200   2.651E-01
    5.300   2.786E-01
    5.400   2.927E-01
    5.500   3.074E-01
    5.600   3.228E-01
    5.700   3.387E-01
    5.800   3.554E-01
    5.900   3.728E-01
    6.000   3.909E-01
    6.100   4.099E-01
    6.200   4.296E-01
    6.300   4.503E-01
    6.400   4.719E-01
    6.500   4.944E-01
    6.600   5.179E-01
    6.700   5.425E-01
    6.800   5.682E-01
    6.900   5.951E-01
    7.000   6.232E-01
    7.100   6.525E-01
    7.200   6.832E-01
    7.300   7.153E-01
    7.400   7.488E-01
    7.500   7.838E-01
    7.600   8.204E-01
    7.700   8.587E-01
    7.800   8.987E-01
    7.900   9.406E-01
    8.000   9.845E-01
    8.100   1.031E+00
    8.200   1.079E+00
    8.300   1.129E+00
    8.400   1.182E+00
    8.500   1.238E+00
    8.600   1.297E+00
    8.700   1.359E+00
    8.800   1.424E+00
    8.900   1.493E+00
    9.000   1.565E+00
    9.100   1.642E+00
    9.200   1.722E+00
    9.300   1.807E+00
    9.400   1.897E+00
    9.500   1.992E+00
    9.600   2.091E+00
    9.700   2.196E+00
    9.800   2.307E+00
    9.900   2.424E+00
   10.000   2.547E+00
   10.100   2.676E+00
   10.200   2.812E+00
   10.300   2.956E+00
   10.400   3.107E+00
   10.500   3.265E+00
   10.600   3.432E+00
   10.700   3.607E+00
   10.800   3.792E+00
   10.900   3.985E+00
   11.000   4.189E+00
   11.100   4.402E+00
   11.200   4.626E+00
   11.300   4.861E+00
   11.400   5.107E+00
   11.500   5.364E+00
   11.600   5.633E+00
   11.700   5.915E+00
   11.800   6.210E+00
   11.900   6.519E+00
   12.000   6.843E+00
   12.100   7.183E+00
   12.200   7.540E+00
   12.300   7.916E+00
   12.400   8.313E+00
   12.500   8.733E+00
   12.600   9.178E+00
   12.700   9.649E+00
   12.800   1.015E+01
   12.900   1.068E+01
   13.000   1.125E+01
   13.100   1.185E+01
   13.200   1.248E+01
   13.300   1.315E+01
   13.400   1.386E+01
   13.500   1.459E+01
   13.600   1.536E+01
   13.700   1.615E+01
   13.800   1.696E+01
   13.900   1.778E+01
   14.000   1.860E+01
   14.100   1.941E+01
   14.200   2.019E+01
   14.300   2.093E+01
   14.400   2.163E+01
   14.500   2.226E+01
   14.600   2.282E+01
   14.700   2.328E+01
   14.800   2.366E+01
   14.900   2.393E+01
   15.000   2.410E+01
   15.100   2.416E+01
   15.200   2.412E+01
   15.300   2.398E+01
   15.400   2.374E+01
   15.500   2.341E+01
   15.600   2.300E+01
   15.700   2.251E+01
   15.800   2.197E+01
   15.900   2.137E+01
   16.000   2.072E+01
   16.100   2.005E+01
   16.200   1.936E+01
   16.300   1.865E+01
   16.400   1.795E+01
   16.500   1.725E+01
   16.600   1.656E+01
   16.700   1.589E+01
   16.800   1.524E+01
   16.900   1.461E+01
   17.000   1.402E+01
   17.100   1.345E+01
   17.200   1.291E+01
   17.300   1.239E+01
   17.400   1.191E+01
   17.500   1.145E+01
   17.600   1.101E+01
   17.700   1.060E+01
   17.800   1.021E+01
   17.900   9.837E+00
   18.000   9.483E+00
   18.100   9.144E+00
   18.200   8.820E+00
   18.300   8.508E+00
   18.400   8.210E+00
   18.500   7.922E+00
   18.600   7.644E+00
   18.700   7.377E+00
   18.800   7.119E+00
   18.900   6.870E+00
   19.000   6.630E+00
   19.100   6.398E+00
   19.200   6.175E+00
   19.300   5.960E+00
   19.400   5.752E+00
   19.500   5.553E+00
   19.600   5.362E+00
   19.700   5.178E+00
   19.800   5.002E+00
   19.900   4.833E+00
   20.000   4.672E+00
   20.100   4.517E+00
   20.200   4.369E+00
   20.300   4.227E+00
   20.400   4.092E+00
   20.500   3.963E+00
   20.600   3.840E+00
   20.700   3.722E+00
   20.800   3.610E+00
   20.900   3.502E+00
   21.000   3.400E+00
   21.100   3.302E+00
   21.200   3.208E+00
   21.300   3.118E+00
   21.400   3.033E+00
   21.500   2.951E+00
   21.600   2.872E+00
   21.700   2.797E+00
   21.800   2.725E+00
   21.900   2.655E+00
   22.000   2.589E+00
   22.100   2.525E+00
   22.200   2.464E+00
   22.300   2.405E+00
   22.400   2.348E+00
   22.500   2.294E+00
   22.600   2.241E+00
   22.700   2.191E+00
   22.800   2.142E+00
   22.900   2.095E+00
   23.000   2.050E+00
   23.100   2.006E+00
   23.200   1.964E+00
   23.300   1.923E+00
   23.400   1.884E+00
   23.500   1.846E+00
   23.600   1.809E+00
   23.700   1.773E+00
   23.800   1.738E+00
   23.900   1.705E+00
   24.000   1.673E+00
   24.100   1.641E+00
   24.200   1.611E+00
   24.300   1.581E+00
   24.400   1.552E+00
   24.500   1.525E+00
   24.600   1.498E+00
   24.700   1.471E+00
   24.800   1.446E+00
   24.900   1.421E+00
   25.000   1.397E+00
   25.100   1.373E+00
   25.200   1.351E+00
   25.300   1.328E+00
   25.400   1.307E+00
   25.500   1.286E+00
   25.600   1.265E+00
   25.700   1.245E+00
   25.800   1.226E+00
   25.900   1.207E+00
   26.000   1.189E+00
   26.100   1.170E+00
   26.200   1.153E+00
   26.300   1.136E+00
   26.400   1.119E+00
   26.500   1.103E+00
   26.600   1.087E+00
   26.700   1.071E+00
   26.800   1.056E+00
   26.900   1.041E+00
   27.000   1.026E+00
   27.100   1.012E+00
   27.200   9.984E-01
   27.300   9.848E-01
   27.400   9.715E-01
   27.500   9.585E-01
   27.600   9.458E-01
   27.700   9.334E-01
   27.800   9.212E-01
   27.900   9.093E-01
   28.000   8.976E-01
   28.100   8.862E-01
   28.200   8.750E-01
   28.300   8.640E-01
   28.400   8.533E-01
   28.500   8.428E-01
   28.600   8.324E-01
   28.700   8.223E-01
   28.800   8.124E-01
   28.900   8.027E-01
   29.000   7.932E-01
   29.100   7.838E-01
   29.200   7.746E-01
   29.300   7.656E-01
   29.400   7.568E-01
   29.500   7.481E-01
   29.600   7.396E-01
   29.700   7.313E-01
   29.800   7.231E-01
   29.900   7.150E-01
   30.000   7.071E-01
 
 Z=  58 A= 141  D1M-QRPA-Inter
 E[MeV]  fQRPA[mb/MeV]
    0.100   9.101E-05
    0.200   3.641E-04
    0.300   8.197E-04
    0.400   1.458E-03
    0.500   2.281E-03
    0.600   3.288E-03
    0.700   4.481E-03
    0.800   5.861E-03
    0.900   7.431E-03
    1.000   9.191E-03
    1.100   1.115E-02
    1.200   1.329E-02
    1.300   1.564E-02
    1.400   1.819E-02
    1.500   2.094E-02
    1.600   2.390E-02
    1.700   2.707E-02
    1.800   3.046E-02
    1.900   3.407E-02
    2.000   3.790E-02
    2.100   4.196E-02
    2.200   4.625E-02
    2.300   5.079E-02
    2.400   5.557E-02
    2.500   6.060E-02
    2.600   6.589E-02
    2.700   7.145E-02
    2.800   7.729E-02
    2.900   8.340E-02
    3.000   8.981E-02
    3.100   9.651E-02
    3.200   1.035E-01
    3.300   1.109E-01
    3.400   1.185E-01
    3.500   1.265E-01
    3.600   1.349E-01
    3.700   1.436E-01
    3.800   1.527E-01
    3.900   1.622E-01
    4.000   1.722E-01
    4.100   1.825E-01
    4.200   1.933E-01
    4.300   2.045E-01
    4.400   2.162E-01
    4.500   2.285E-01
    4.600   2.412E-01
    4.700   2.545E-01
    4.800   2.684E-01
    4.900   2.828E-01
    5.000   2.979E-01
    5.100   3.136E-01
    5.200   3.300E-01
    5.300   3.471E-01
    5.400   3.650E-01
    5.500   3.836E-01
    5.600   4.031E-01
    5.700   4.235E-01
    5.800   4.447E-01
    5.900   4.669E-01
    6.000   4.901E-01
    6.100   5.143E-01
    6.200   5.396E-01
    6.300   5.661E-01
    6.400   5.938E-01
    6.500   6.228E-01
    6.600   6.531E-01
    6.700   6.848E-01
    6.800   7.180E-01
    6.900   7.527E-01
    7.000   7.891E-01
    7.100   8.271E-01
    7.200   8.669E-01
    7.300   9.085E-01
    7.400   9.520E-01
    7.500   9.976E-01
    7.600   1.045E+00
    7.700   1.095E+00
    7.800   1.147E+00
    7.900   1.202E+00
    8.000   1.259E+00
    8.100   1.319E+00
    8.200   1.382E+00
    8.300   1.448E+00
    8.400   1.517E+00
    8.500   1.589E+00
    8.600   1.665E+00
    8.700   1.744E+00
    8.800   1.828E+00
    8.900   1.915E+00
    9.000   2.007E+00
    9.100   2.103E+00
    9.200   2.204E+00
    9.300   2.310E+00
    9.400   2.422E+00
    9.500   2.538E+00
    9.600   2.660E+00
    9.700   2.788E+00
    9.800   2.922E+00
    9.900   3.062E+00
   10.000   3.209E+00
   10.100   3.362E+00
   10.200   3.522E+00
   10.300   3.690E+00
   10.400   3.866E+00
   10.500   4.050E+00
   10.600   4.242E+00
   10.700   4.443E+00
   10.800   4.654E+00
   10.900   4.874E+00
   11.000   5.105E+00
   11.100   5.346E+00
   11.200   5.599E+00
   11.300   5.864E+00
   11.400   6.140E+00
   11.500   6.430E+00
   11.600   6.734E+00
   11.700   7.052E+00
   11.800   7.384E+00
   11.900   7.733E+00
   12.000   8.099E+00
   12.100   8.482E+00
   12.200   8.883E+00
   12.300   9.305E+00
   12.400   9.747E+00
   12.500   1.021E+01
   12.600   1.070E+01
   12.700   1.121E+01
   12.800   1.174E+01
   12.900   1.230E+01
   13.000   1.288E+01
   13.100   1.348E+01
   13.200   1.410E+01
   13.300   1.474E+01
   13.400   1.540E+01
   13.500   1.606E+01
   13.600   1.674E+01
   13.700   1.741E+01
   13.800   1.807E+01
   13.900   1.872E+01
   14.000   1.934E+01
   14.100   1.993E+01
   14.200   2.048E+01
   14.300   2.099E+01
   14.400   2.143E+01
   14.500   2.181E+01
   14.600   2.211E+01
   14.700   2.235E+01
   14.800   2.250E+01
   14.900   2.258E+01
   15.000   2.258E+01
   15.100   2.249E+01
   15.200   2.234E+01
   15.300   2.211E+01
   15.400   2.182E+01
   15.500   2.147E+01
   15.600   2.106E+01
   15.700   2.060E+01
   15.800   2.010E+01
   15.900   1.957E+01
   16.000   1.900E+01
   16.100   1.842E+01
   16.200   1.783E+01
   16.300   1.723E+01
   16.400   1.663E+01
   16.500   1.603E+01
   16.600   1.545E+01
   16.700   1.487E+01
   16.800   1.431E+01
   16.900   1.377E+01
   17.000   1.325E+01
   17.100   1.275E+01
   17.200   1.227E+01
   17.300   1.180E+01
   17.400   1.136E+01
   17.500   1.094E+01
   17.600   1.054E+01
   17.700   1.015E+01
   17.800   9.786E+00
   17.900   9.434E+00
   18.000   9.097E+00
   18.100   8.774E+00
   18.200   8.465E+00
   18.300   8.168E+00
   18.400   7.883E+00
   18.500   7.609E+00
   18.600   7.346E+00
   18.700   7.093E+00
   18.800   6.850E+00
   18.900   6.617E+00
   19.000   6.392E+00
   19.100   6.176E+00
   19.200   5.969E+00
   19.300   5.770E+00
   19.400   5.580E+00
   19.500   5.397E+00
   19.600   5.221E+00
   19.700   5.053E+00
   19.800   4.892E+00
   19.900   4.738E+00
   20.000   4.590E+00
   20.100   4.449E+00
   20.200   4.313E+00
   20.300   4.184E+00
   20.400   4.060E+00
   20.500   3.941E+00
   20.600   3.827E+00
   20.700   3.719E+00
   20.800   3.614E+00
   20.900   3.515E+00
   21.000   3.419E+00
   21.100   3.328E+00
   21.200   3.240E+00
   21.300   3.156E+00
   21.400   3.075E+00
   21.500   2.997E+00
   21.600   2.923E+00
   21.700   2.851E+00
   21.800   2.783E+00
   21.900   2.716E+00
   22.000   2.653E+00
   22.100   2.591E+00
   22.200   2.532E+00
   22.300   2.475E+00
   22.400   2.420E+00
   22.500   2.367E+00
   22.600   2.316E+00
   22.700   2.267E+00
   22.800   2.219E+00
   22.900   2.173E+00
   23.000   2.129E+00
   23.100   2.086E+00
   23.200   2.044E+00
   23.300   2.004E+00
   23.400   1.965E+00
   23.500   1.927E+00
   23.600   1.890E+00
   23.700   1.855E+00
   23.800   1.820E+00
   23.900   1.787E+00
   24.000   1.755E+00
   24.100   1.723E+00
   24.200   1.692E+00
   24.300   1.663E+00
   24.400   1.634E+00
   24.500   1.606E+00
   24.600   1.579E+00
   24.700   1.552E+00
   24.800   1.526E+00
   24.900   1.501E+00
   25.000   1.477E+00
   25.100   1.453E+00
   25.200   1.430E+00
   25.300   1.407E+00
   25.400   1.385E+00
   25.500   1.363E+00
   25.600   1.343E+00
   25.700   1.322E+00
   25.800   1.302E+00
   25.900   1.283E+00
   26.000   1.264E+00
   26.100   1.245E+00
   26.200   1.227E+00
   26.300   1.210E+00
   26.400   1.192E+00
   26.500   1.176E+00
   26.600   1.159E+00
   26.700   1.143E+00
   26.800   1.127E+00
   26.900   1.112E+00
   27.000   1.097E+00
   27.100   1.082E+00
   27.200   1.068E+00
   27.300   1.054E+00
   27.400   1.040E+00
   27.500   1.026E+00
   27.600   1.013E+00
   27.700   1.000E+00
   27.800   9.875E-01
   27.900   9.751E-01
   28.000   9.629E-01
   28.100   9.510E-01
   28.200   9.393E-01
   28.300   9.279E-01
   28.400   9.167E-01
   28.500   9.057E-01
   28.600   8.949E-01
   28.700   8.843E-01
   28.800   8.739E-01
   28.900   8.637E-01
   29.000   8.537E-01
   29.100   8.439E-01
   29.200   8.343E-01
   29.300   8.248E-01
   29.400   8.156E-01
   29.500   8.064E-01
   29.600   7.975E-01
   29.700   7.887E-01
   29.800   7.801E-01
   29.900   7.716E-01
   30.000   7.633E-01
 
 Z=  58 A= 142  D1M-QRPA
   E[MeV]   fQRPA[mb/MeV]
    0.100   1.104E-04
    0.200   4.416E-04
    0.300   9.942E-04
    0.400   1.769E-03
    0.500   2.766E-03
    0.600   3.988E-03
    0.700   5.436E-03
    0.800   7.111E-03
    0.900   9.016E-03
    1.000   1.115E-02
    1.100   1.353E-02
    1.200   1.614E-02
    1.300   1.899E-02
    1.400   2.209E-02
    1.500   2.543E-02
    1.600   2.903E-02
    1.700   3.289E-02
    1.800   3.701E-02
    1.900   4.140E-02
    2.000   4.607E-02
    2.100   5.102E-02
    2.200   5.626E-02
    2.300   6.179E-02
    2.400   6.762E-02
    2.500   7.377E-02
    2.600   8.024E-02
    2.700   8.704E-02
    2.800   9.418E-02
    2.900   1.017E-01
    3.000   1.095E-01
    3.100   1.177E-01
    3.200   1.263E-01
    3.300   1.354E-01
    3.400   1.448E-01
    3.500   1.546E-01
    3.600   1.649E-01
    3.700   1.757E-01
    3.800   1.869E-01
    3.900   1.987E-01
    4.000   2.109E-01
    4.100   2.237E-01
    4.200   2.371E-01
    4.300   2.510E-01
    4.400   2.656E-01
    4.500   2.807E-01
    4.600   2.966E-01
    4.700   3.132E-01
    4.800   3.304E-01
    4.900   3.485E-01
    5.000   3.673E-01
    5.100   3.870E-01
    5.200   4.076E-01
    5.300   4.291E-01
    5.400   4.515E-01
    5.500   4.750E-01
    5.600   4.996E-01
    5.700   5.252E-01
    5.800   5.521E-01
    5.900   5.801E-01
    6.000   6.095E-01
    6.100   6.403E-01
    6.200   6.725E-01
    6.300   7.062E-01
    6.400   7.415E-01
    6.500   7.785E-01
    6.600   8.172E-01
    6.700   8.577E-01
    6.800   9.002E-01
    6.900   9.447E-01
    7.000   9.913E-01
    7.100   1.040E+00
    7.200   1.091E+00
    7.300   1.145E+00
    7.400   1.201E+00
    7.500   1.260E+00
    7.600   1.321E+00
    7.700   1.386E+00
    7.800   1.453E+00
    7.900   1.524E+00
    8.000   1.598E+00
    8.100   1.675E+00
    8.200   1.756E+00
    8.300   1.841E+00
    8.400   1.930E+00
    8.500   2.023E+00
    8.600   2.120E+00
    8.700   2.221E+00
    8.800   2.327E+00
    8.900   2.438E+00
    9.000   2.553E+00
    9.100   2.674E+00
    9.200   2.800E+00
    9.300   2.931E+00
    9.400   3.067E+00
    9.500   3.209E+00
    9.600   3.357E+00
    9.700   3.511E+00
    9.800   3.671E+00
    9.900   3.838E+00
   10.000   4.011E+00
   10.100   4.190E+00
   10.200   4.377E+00
   10.300   4.571E+00
   10.400   4.773E+00
   10.500   4.983E+00
   10.600   5.202E+00
   10.700   5.429E+00
   10.800   5.667E+00
   10.900   5.914E+00
   11.000   6.172E+00
   11.100   6.442E+00
   11.200   6.723E+00
   11.300   7.018E+00
   11.400   7.326E+00
   11.500   7.649E+00
   11.600   7.987E+00
   11.700   8.341E+00
   11.800   8.713E+00
   11.900   9.102E+00
   12.000   9.510E+00
   12.100   9.937E+00
   12.200   1.038E+01
   12.300   1.085E+01
   12.400   1.134E+01
   12.500   1.185E+01
   12.600   1.237E+01
   12.700   1.291E+01
   12.800   1.347E+01
   12.900   1.404E+01
   13.000   1.463E+01
   13.100   1.521E+01
   13.200   1.581E+01
   13.300   1.639E+01
   13.400   1.698E+01
   13.500   1.754E+01
   13.600   1.809E+01
   13.700   1.861E+01
   13.800   1.910E+01
   13.900   1.955E+01
   14.000   1.996E+01
   14.100   2.032E+01
   14.200   2.062E+01
   14.300   2.087E+01
   14.400   2.106E+01
   14.500   2.119E+01
   14.600   2.127E+01
   14.700   2.128E+01
   14.800   2.123E+01
   14.900   2.113E+01
   15.000   2.098E+01
   15.100   2.078E+01
   15.200   2.053E+01
   15.300   2.023E+01
   15.400   1.990E+01
   15.500   1.953E+01
   15.600   1.913E+01
   15.700   1.870E+01
   15.800   1.825E+01
   15.900   1.778E+01
   16.000   1.729E+01
   16.100   1.680E+01
   16.200   1.629E+01
   16.300   1.579E+01
   16.400   1.529E+01
   16.500   1.479E+01
   16.600   1.430E+01
   16.700   1.381E+01
   16.800   1.334E+01
   16.900   1.288E+01
   17.000   1.243E+01
   17.100   1.199E+01
   17.200   1.156E+01
   17.300   1.115E+01
   17.400   1.076E+01
   17.500   1.037E+01
   17.600   1.000E+01
   17.700   9.648E+00
   17.800   9.306E+00
   17.900   8.976E+00
   18.000   8.659E+00
   18.100   8.354E+00
   18.200   8.061E+00
   18.300   7.780E+00
   18.400   7.511E+00
   18.500   7.252E+00
   18.600   7.004E+00
   18.700   6.767E+00
   18.800   6.540E+00
   18.900   6.323E+00
   19.000   6.115E+00
   19.100   5.916E+00
   19.200   5.726E+00
   19.300   5.544E+00
   19.400   5.370E+00
   19.500   5.204E+00
   19.600   5.044E+00
   19.700   4.892E+00
   19.800   4.747E+00
   19.900   4.608E+00
   20.000   4.474E+00
   20.100   4.347E+00
   20.200   4.225E+00
   20.300   4.108E+00
   20.400   3.996E+00
   20.500   3.888E+00
   20.600   3.785E+00
   20.700   3.686E+00
   20.800   3.591E+00
   20.900   3.500E+00
   21.000   3.412E+00
   21.100   3.328E+00
   21.200   3.247E+00
   21.300   3.169E+00
   21.400   3.093E+00
   21.500   3.021E+00
   21.600   2.951E+00
   21.700   2.884E+00
   21.800   2.820E+00
   21.900   2.757E+00
   22.000   2.697E+00
   22.100   2.638E+00
   22.200   2.582E+00
   22.300   2.528E+00
   22.400   2.475E+00
   22.500   2.424E+00
   22.600   2.375E+00
   22.700   2.328E+00
   22.800   2.282E+00
   22.900   2.237E+00
   23.000   2.194E+00
   23.100   2.152E+00
   23.200   2.111E+00
   23.300   2.072E+00
   23.400   2.033E+00
   23.500   1.996E+00
   23.600   1.960E+00
   23.700   1.925E+00
   23.800   1.891E+00
   23.900   1.858E+00
   24.000   1.826E+00
   24.100   1.795E+00
   24.200   1.764E+00
   24.300   1.735E+00
   24.400   1.706E+00
   24.500   1.678E+00
   24.600   1.651E+00
   24.700   1.624E+00
   24.800   1.598E+00
   24.900   1.573E+00
   25.000   1.549E+00
   25.100   1.525E+00
   25.200   1.501E+00
   25.300   1.478E+00
   25.400   1.456E+00
   25.500   1.435E+00
   25.600   1.413E+00
   25.700   1.393E+00
   25.800   1.372E+00
   25.900   1.353E+00
   26.000   1.333E+00
   26.100   1.315E+00
   26.200   1.296E+00
   26.300   1.278E+00
   26.400   1.261E+00
   26.500   1.243E+00
   26.600   1.227E+00
   26.700   1.210E+00
   26.800   1.194E+00
   26.900   1.178E+00
   27.000   1.163E+00
   27.100   1.148E+00
   27.200   1.133E+00
   27.300   1.118E+00
   27.400   1.104E+00
   27.500   1.090E+00
   27.600   1.077E+00
   27.700   1.063E+00
   27.800   1.050E+00
   27.900   1.038E+00
   28.000   1.025E+00
   28.100   1.013E+00
   28.200   1.001E+00
   28.300   9.887E-01
   28.400   9.771E-01
   28.500   9.657E-01
   28.600   9.545E-01
   28.700   9.435E-01
   28.800   9.327E-01
   28.900   9.221E-01
   29.000   9.117E-01
   29.100   9.015E-01
   29.200   8.915E-01
   29.300   8.817E-01
   29.400   8.720E-01
   29.500   8.625E-01
   29.600   8.532E-01
   29.700   8.440E-01
   29.800   8.350E-01
   29.900   8.262E-01
   30.000   8.174E-01
 
 Z=  58 A= 143  D1M-QRPA-Inter
 E[MeV]  fQRPA[mb/MeV]
    0.100   1.349E-04
    0.200   5.396E-04
    0.300   1.215E-03
    0.400   2.161E-03
    0.500   3.380E-03
    0.600   4.872E-03
    0.700   6.641E-03
    0.800   8.687E-03
    0.900   1.101E-02
    1.000   1.362E-02
    1.100   1.652E-02
    1.200   1.970E-02
    1.300   2.318E-02
    1.400   2.695E-02
    1.500   3.103E-02
    1.600   3.541E-02
    1.700   4.009E-02
    1.800   4.510E-02
    1.900   5.042E-02
    2.000   5.607E-02
    2.100   6.205E-02
    2.200   6.837E-02
    2.300   7.504E-02
    2.400   8.206E-02
    2.500   8.944E-02
    2.600   9.719E-02
    2.700   1.053E-01
    2.800   1.139E-01
    2.900   1.228E-01
    3.000   1.321E-01
    3.100   1.419E-01
    3.200   1.521E-01
    3.300   1.628E-01
    3.400   1.739E-01
    3.500   1.856E-01
    3.600   1.977E-01
    3.700   2.104E-01
    3.800   2.237E-01
    3.900   2.375E-01
    4.000   2.518E-01
    4.100   2.669E-01
    4.200   2.825E-01
    4.300   2.988E-01
    4.400   3.159E-01
    4.500   3.336E-01
    4.600   3.522E-01
    4.700   3.715E-01
    4.800   3.916E-01
    4.900   4.127E-01
    5.000   4.346E-01
    5.100   4.575E-01
    5.200   4.814E-01
    5.300   5.063E-01
    5.400   5.323E-01
    5.500   5.595E-01
    5.600   5.879E-01
    5.700   6.175E-01
    5.800   6.485E-01
    5.900   6.808E-01
    6.000   7.146E-01
    6.100   7.500E-01
    6.200   7.869E-01
    6.300   8.256E-01
    6.400   8.659E-01
    6.500   9.082E-01
    6.600   9.524E-01
    6.700   9.986E-01
    6.800   1.047E+00
    6.900   1.097E+00
    7.000   1.150E+00
    7.100   1.206E+00
    7.200   1.263E+00
    7.300   1.324E+00
    7.400   1.387E+00
    7.500   1.453E+00
    7.600   1.523E+00
    7.700   1.595E+00
    7.800   1.670E+00
    7.900   1.749E+00
    8.000   1.832E+00
    8.100   1.918E+00
    8.200   2.009E+00
    8.300   2.103E+00
    8.400   2.202E+00
    8.500   2.305E+00
    8.600   2.413E+00
    8.700   2.525E+00
    8.800   2.643E+00
    8.900   2.766E+00
    9.000   2.895E+00
    9.100   3.029E+00
    9.200   3.169E+00
    9.300   3.316E+00
    9.400   3.469E+00
    9.500   3.629E+00
    9.600   3.795E+00
    9.700   3.969E+00
    9.800   4.151E+00
    9.900   4.341E+00
   10.000   4.538E+00
   10.100   4.744E+00
   10.200   4.960E+00
   10.300   5.184E+00
   10.400   5.418E+00
   10.500   5.662E+00
   10.600   5.917E+00
   10.700   6.183E+00
   10.800   6.461E+00
   10.900   6.751E+00
   11.000   7.054E+00
   11.100   7.369E+00
   11.200   7.699E+00
   11.300   8.043E+00
   11.400   8.402E+00
   11.500   8.777E+00
   11.600   9.167E+00
   11.700   9.574E+00
   11.800   9.998E+00
   11.900   1.044E+01
   12.000   1.090E+01
   12.100   1.137E+01
   12.200   1.186E+01
   12.300   1.236E+01
   12.400   1.288E+01
   12.500   1.342E+01
   12.600   1.396E+01
   12.700   1.451E+01
   12.800   1.506E+01
   12.900   1.562E+01
   13.000   1.618E+01
   13.100   1.673E+01
   13.200   1.727E+01
   13.300   1.779E+01
   13.400   1.829E+01
   13.500   1.877E+01
   13.600   1.921E+01
   13.700   1.962E+01
   13.800   1.999E+01
   13.900   2.031E+01
   14.000   2.059E+01
   14.100   2.082E+01
   14.200   2.099E+01
   14.300   2.111E+01
   14.400   2.117E+01
   14.500   2.118E+01
   14.600   2.113E+01
   14.700   2.104E+01
   14.800   2.089E+01
   14.900   2.069E+01
   15.000   2.045E+01
   15.100   2.017E+01
   15.200   1.985E+01
   15.300   1.950E+01
   15.400   1.912E+01
   15.500   1.870E+01
   15.600   1.827E+01
   15.700   1.782E+01
   15.800   1.735E+01
   15.900   1.687E+01
   16.000   1.639E+01
   16.100   1.590E+01
   16.200   1.541E+01
   16.300   1.492E+01
   16.400   1.444E+01
   16.500   1.396E+01
   16.600   1.350E+01
   16.700   1.304E+01
   16.800   1.260E+01
   16.900   1.216E+01
   17.000   1.174E+01
   17.100   1.134E+01
   17.200   1.095E+01
   17.300   1.057E+01
   17.400   1.020E+01
   17.500   9.852E+00
   17.600   9.514E+00
   17.700   9.189E+00
   17.800   8.877E+00
   17.900   8.577E+00
   18.000   8.289E+00
   18.100   8.012E+00
   18.200   7.747E+00
   18.300   7.493E+00
   18.400   7.249E+00
   18.500   7.016E+00
   18.600   6.792E+00
   18.700   6.577E+00
   18.800   6.371E+00
   18.900   6.175E+00
   19.000   5.986E+00
   19.100   5.805E+00
   19.200   5.632E+00
   19.300   5.466E+00
   19.400   5.307E+00
   19.500   5.155E+00
   19.600   5.009E+00
   19.700   4.869E+00
   19.800   4.734E+00
   19.900   4.605E+00
   20.000   4.482E+00
   20.100   4.363E+00
   20.200   4.249E+00
   20.300   4.139E+00
   20.400   4.034E+00
   20.500   3.933E+00
   20.600   3.836E+00
   20.700   3.742E+00
   20.800   3.652E+00
   20.900   3.565E+00
   21.000   3.481E+00
   21.100   3.401E+00
   21.200   3.323E+00
   21.300   3.248E+00
   21.400   3.176E+00
   21.500   3.106E+00
   21.600   3.038E+00
   21.700   2.973E+00
   21.800   2.910E+00
   21.900   2.849E+00
   22.000   2.790E+00
   22.100   2.734E+00
   22.200   2.678E+00
   22.300   2.625E+00
   22.400   2.573E+00
   22.500   2.523E+00
   22.600   2.475E+00
   22.700   2.427E+00
   22.800   2.382E+00
   22.900   2.337E+00
   23.000   2.294E+00
   23.100   2.253E+00
   23.200   2.212E+00
   23.300   2.173E+00
   23.400   2.134E+00
   23.500   2.097E+00
   23.600   2.061E+00
   23.700   2.026E+00
   23.800   1.992E+00
   23.900   1.958E+00
   24.000   1.926E+00
   24.100   1.894E+00
   24.200   1.863E+00
   24.300   1.834E+00
   24.400   1.804E+00
   24.500   1.776E+00
   24.600   1.748E+00
   24.700   1.721E+00
   24.800   1.695E+00
   24.900   1.669E+00
   25.000   1.644E+00
   25.100   1.619E+00
   25.200   1.595E+00
   25.300   1.572E+00
   25.400   1.549E+00
   25.500   1.527E+00
   25.600   1.505E+00
   25.700   1.484E+00
   25.800   1.463E+00
   25.900   1.443E+00
   26.000   1.423E+00
   26.100   1.404E+00
   26.200   1.385E+00
   26.300   1.366E+00
   26.400   1.348E+00
   26.500   1.330E+00
   26.600   1.313E+00
   26.700   1.295E+00
   26.800   1.279E+00
   26.900   1.262E+00
   27.000   1.246E+00
   27.100   1.231E+00
   27.200   1.215E+00
   27.300   1.200E+00
   27.400   1.185E+00
   27.500   1.171E+00
   27.600   1.157E+00
   27.700   1.143E+00
   27.800   1.129E+00
   27.900   1.116E+00
   28.000   1.103E+00
   28.100   1.090E+00
   28.200   1.077E+00
   28.300   1.065E+00
   28.400   1.052E+00
   28.500   1.040E+00
   28.600   1.029E+00
   28.700   1.017E+00
   28.800   1.006E+00
   28.900   9.947E-01
   29.000   9.838E-01
   29.100   9.730E-01
   29.200   9.625E-01
   29.300   9.521E-01
   29.400   9.419E-01
   29.500   9.319E-01
   29.600   9.221E-01
   29.700   9.124E-01
   29.800   9.029E-01
   29.900   8.935E-01
   30.000   8.843E-01
 
 Z=  58 A= 144  D1M-QRPA
   E[MeV]   fQRPA[mb/MeV]
    0.100   1.639E-04
    0.200   6.559E-04
    0.300   1.477E-03
    0.400   2.627E-03
    0.500   4.108E-03
    0.600   5.923E-03
    0.700   8.072E-03
    0.800   1.056E-02
    0.900   1.338E-02
    1.000   1.655E-02
    1.100   2.007E-02
    1.200   2.393E-02
    1.300   2.815E-02
    1.400   3.272E-02
    1.500   3.766E-02
    1.600   4.296E-02
    1.700   4.863E-02
    1.800   5.467E-02
    1.900   6.109E-02
    2.000   6.789E-02
    2.100   7.509E-02
    2.200   8.267E-02
    2.300   9.066E-02
    2.400   9.906E-02
    2.500   1.079E-01
    2.600   1.171E-01
    2.700   1.268E-01
    2.800   1.369E-01
    2.900   1.475E-01
    3.000   1.586E-01
    3.100   1.702E-01
    3.200   1.822E-01
    3.300   1.948E-01
    3.400   2.079E-01
    3.500   2.216E-01
    3.600   2.359E-01
    3.700   2.507E-01
    3.800   2.662E-01
    3.900   2.824E-01
    4.000   2.992E-01
    4.100   3.167E-01
    4.200   3.350E-01
    4.300   3.540E-01
    4.400   3.738E-01
    4.500   3.945E-01
    4.600   4.160E-01
    4.700   4.384E-01
    4.800   4.618E-01
    4.900   4.861E-01
    5.000   5.115E-01
    5.100   5.380E-01
    5.200   5.656E-01
    5.300   5.943E-01
    5.400   6.243E-01
    5.500   6.556E-01
    5.600   6.883E-01
    5.700   7.223E-01
    5.800   7.578E-01
    5.900   7.949E-01
    6.000   8.336E-01
    6.100   8.740E-01
    6.200   9.162E-01
    6.300   9.602E-01
    6.400   1.006E+00
    6.500   1.054E+00
    6.600   1.104E+00
    6.700   1.157E+00
    6.800   1.211E+00
    6.900   1.268E+00
    7.000   1.328E+00
    7.100   1.390E+00
    7.200   1.455E+00
    7.300   1.523E+00
    7.400   1.594E+00
    7.500   1.668E+00
    7.600   1.745E+00
    7.700   1.826E+00
    7.800   1.910E+00
    7.900   1.998E+00
    8.000   2.090E+00
    8.100   2.186E+00
    8.200   2.286E+00
    8.300   2.390E+00
    8.400   2.499E+00
    8.500   2.613E+00
    8.600   2.732E+00
    8.700   2.857E+00
    8.800   2.987E+00
    8.900   3.123E+00
    9.000   3.265E+00
    9.100   3.414E+00
    9.200   3.570E+00
    9.300   3.733E+00
    9.400   3.903E+00
    9.500   4.082E+00
    9.600   4.269E+00
    9.700   4.465E+00
    9.800   4.670E+00
    9.900   4.884E+00
   10.000   5.109E+00
   10.100   5.345E+00
   10.200   5.591E+00
   10.300   5.849E+00
   10.400   6.119E+00
   10.500   6.402E+00
   10.600   6.697E+00
   10.700   7.006E+00
   10.800   7.329E+00
   10.900   7.667E+00
   11.000   8.020E+00
   11.100   8.388E+00
   11.200   8.772E+00
   11.300   9.172E+00
   11.400   9.588E+00
   11.500   1.002E+01
   11.600   1.047E+01
   11.700   1.093E+01
   11.800   1.141E+01
   11.900   1.191E+01
   12.000   1.242E+01
   12.100   1.294E+01
   12.200   1.347E+01
   12.300   1.402E+01
   12.400   1.457E+01
   12.500   1.512E+01
   12.600   1.567E+01
   12.700   1.622E+01
   12.800   1.676E+01
   12.900   1.729E+01
   13.000   1.780E+01
   13.100   1.830E+01
   13.200   1.877E+01
   13.300   1.920E+01
   13.400   1.961E+01
   13.500   1.998E+01
   13.600   2.030E+01
   13.700   2.058E+01
   13.800   2.081E+01
   13.900   2.100E+01
   14.000   2.113E+01
   14.100   2.122E+01
   14.200   2.125E+01
   14.300   2.124E+01
   14.400   2.117E+01
   14.500   2.106E+01
   14.600   2.090E+01
   14.700   2.069E+01
   14.800   2.044E+01
   14.900   2.016E+01
   15.000   1.984E+01
   15.100   1.949E+01
   15.200   1.911E+01
   15.300   1.870E+01
   15.400   1.827E+01
   15.500   1.782E+01
   15.600   1.736E+01
   15.700   1.689E+01
   15.800   1.642E+01
   15.900   1.593E+01
   16.000   1.545E+01
   16.100   1.497E+01
   16.200   1.450E+01
   16.300   1.403E+01
   16.400   1.357E+01
   16.500   1.312E+01
   16.600   1.268E+01
   16.700   1.225E+01
   16.800   1.183E+01
   16.900   1.143E+01
   17.000   1.104E+01
   17.100   1.067E+01
   17.200   1.031E+01
   17.300   9.962E+00
   17.400   9.629E+00
   17.500   9.309E+00
   17.600   9.001E+00
   17.700   8.707E+00
   17.800   8.424E+00
   17.900   8.154E+00
   18.000   7.894E+00
   18.100   7.646E+00
   18.200   7.408E+00
   18.300   7.180E+00
   18.400   6.961E+00
   18.500   6.752E+00
   18.600   6.552E+00
   18.700   6.360E+00
   18.800   6.176E+00
   18.900   5.999E+00
   19.000   5.830E+00
   19.100   5.667E+00
   19.200   5.512E+00
   19.300   5.362E+00
   19.400   5.218E+00
   19.500   5.080E+00
   19.600   4.948E+00
   19.700   4.820E+00
   19.800   4.698E+00
   19.900   4.580E+00
   20.000   4.466E+00
   20.100   4.357E+00
   20.200   4.252E+00
   20.300   4.150E+00
   20.400   4.052E+00
   20.500   3.958E+00
   20.600   3.867E+00
   20.700   3.780E+00
   20.800   3.695E+00
   20.900   3.613E+00
   21.000   3.534E+00
   21.100   3.458E+00
   21.200   3.384E+00
   21.300   3.313E+00
   21.400   3.244E+00
   21.500   3.177E+00
   21.600   3.112E+00
   21.700   3.049E+00
   21.800   2.989E+00
   21.900   2.930E+00
   22.000   2.873E+00
   22.100   2.818E+00
   22.200   2.764E+00
   22.300   2.712E+00
   22.400   2.661E+00
   22.500   2.612E+00
   22.600   2.565E+00
   22.700   2.519E+00
   22.800   2.474E+00
   22.900   2.430E+00
   23.000   2.388E+00
   23.100   2.346E+00
   23.200   2.306E+00
   23.300   2.267E+00
   23.400   2.229E+00
   23.500   2.192E+00
   23.600   2.156E+00
   23.700   2.121E+00
   23.800   2.087E+00
   23.900   2.053E+00
   24.000   2.021E+00
   24.100   1.989E+00
   24.200   1.958E+00
   24.300   1.928E+00
   24.400   1.899E+00
   24.500   1.870E+00
   24.600   1.842E+00
   24.700   1.814E+00
   24.800   1.788E+00
   24.900   1.762E+00
   25.000   1.736E+00
   25.100   1.711E+00
   25.200   1.687E+00
   25.300   1.663E+00
   25.400   1.640E+00
   25.500   1.617E+00
   25.600   1.595E+00
   25.700   1.573E+00
   25.800   1.552E+00
   25.900   1.531E+00
   26.000   1.511E+00
   26.100   1.491E+00
   26.200   1.471E+00
   26.300   1.452E+00
   26.400   1.434E+00
   26.500   1.415E+00
   26.600   1.397E+00
   26.700   1.380E+00
   26.800   1.363E+00
   26.900   1.346E+00
   27.000   1.329E+00
   27.100   1.313E+00
   27.200   1.297E+00
   27.300   1.281E+00
   27.400   1.266E+00
   27.500   1.251E+00
   27.600   1.236E+00
   27.700   1.222E+00
   27.800   1.208E+00
   27.900   1.194E+00
   28.000   1.180E+00
   28.100   1.167E+00
   28.200   1.153E+00
   28.300   1.140E+00
   28.400   1.128E+00
   28.500   1.115E+00
   28.600   1.103E+00
   28.700   1.091E+00
   28.800   1.079E+00
   28.900   1.067E+00
   29.000   1.056E+00
   29.100   1.045E+00
   29.200   1.034E+00
   29.300   1.023E+00
   29.400   1.012E+00
   29.500   1.002E+00
   29.600   9.914E-01
   29.700   9.813E-01
   29.800   9.713E-01
   29.900   9.614E-01
   30.000   9.518E-01
 
 Z=  58 A= 145  D1M-QRPA-Inter
 E[MeV]  fQRPA[mb/MeV]
    0.100   1.843E-04
    0.200   7.371E-04
    0.300   1.659E-03
    0.400   2.950E-03
    0.500   4.611E-03
    0.600   6.643E-03
    0.700   9.047E-03
    0.800   1.182E-02
    0.900   1.497E-02
    1.000   1.850E-02
    1.100   2.240E-02
    1.200   2.668E-02
    1.300   3.134E-02
    1.400   3.638E-02
    1.500   4.180E-02
    1.600   4.760E-02
    1.700   5.379E-02
    1.800   6.037E-02
    1.900   6.734E-02
    2.000   7.470E-02
    2.100   8.247E-02
    2.200   9.064E-02
    2.300   9.923E-02
    2.400   1.082E-01
    2.500   1.177E-01
    2.600   1.276E-01
    2.700   1.379E-01
    2.800   1.487E-01
    2.900   1.600E-01
    3.000   1.717E-01
    3.100   1.840E-01
    3.200   1.968E-01
    3.300   2.102E-01
    3.400   2.241E-01
    3.500   2.386E-01
    3.600   2.537E-01
    3.700   2.695E-01
    3.800   2.859E-01
    3.900   3.030E-01
    4.000   3.209E-01
    4.100   3.395E-01
    4.200   3.588E-01
    4.300   3.790E-01
    4.400   4.001E-01
    4.500   4.220E-01
    4.600   4.448E-01
    4.700   4.686E-01
    4.800   4.934E-01
    4.900   5.193E-01
    5.000   5.463E-01
    5.100   5.743E-01
    5.200   6.036E-01
    5.300   6.342E-01
    5.400   6.660E-01
    5.500   6.992E-01
    5.600   7.338E-01
    5.700   7.699E-01
    5.800   8.075E-01
    5.900   8.468E-01
    6.000   8.878E-01
    6.100   9.305E-01
    6.200   9.751E-01
    6.300   1.022E+00
    6.400   1.070E+00
    6.500   1.121E+00
    6.600   1.174E+00
    6.700   1.229E+00
    6.800   1.286E+00
    6.900   1.346E+00
    7.000   1.409E+00
    7.100   1.474E+00
    7.200   1.542E+00
    7.300   1.613E+00
    7.400   1.687E+00
    7.500   1.765E+00
    7.600   1.845E+00
    7.700   1.929E+00
    7.800   2.017E+00
    7.900   2.108E+00
    8.000   2.204E+00
    8.100   2.303E+00
    8.200   2.407E+00
    8.300   2.515E+00
    8.400   2.628E+00
    8.500   2.746E+00
    8.600   2.870E+00
    8.700   2.999E+00
    8.800   3.133E+00
    8.900   3.274E+00
    9.000   3.421E+00
    9.100   3.575E+00
    9.200   3.736E+00
    9.300   3.904E+00
    9.400   4.080E+00
    9.500   4.265E+00
    9.600   4.458E+00
    9.700   4.660E+00
    9.800   4.871E+00
    9.900   5.092E+00
   10.000   5.324E+00
   10.100   5.566E+00
   10.200   5.820E+00
   10.300   6.085E+00
   10.400   6.363E+00
   10.500   6.653E+00
   10.600   6.956E+00
   10.700   7.273E+00
   10.800   7.604E+00
   10.900   7.949E+00
   11.000   8.309E+00
   11.100   8.685E+00
   11.200   9.075E+00
   11.300   9.482E+00
   11.400   9.903E+00
   11.500   1.034E+01
   11.600   1.079E+01
   11.700   1.126E+01
   11.800   1.174E+01
   11.900   1.224E+01
   12.000   1.275E+01
   12.100   1.326E+01
   12.200   1.379E+01
   12.300   1.432E+01
   12.400   1.486E+01
   12.500   1.540E+01
   12.600   1.594E+01
   12.700   1.647E+01
   12.800   1.699E+01
   12.900   1.750E+01
   13.000   1.799E+01
   13.100   1.846E+01
   13.200   1.891E+01
   13.300   1.932E+01
   13.400   1.970E+01
   13.500   2.005E+01
   13.600   2.035E+01
   13.700   2.061E+01
   13.800   2.083E+01
   13.900   2.100E+01
   14.000   2.112E+01
   14.100   2.120E+01
   14.200   2.122E+01
   14.300   2.120E+01
   14.400   2.113E+01
   14.500   2.101E+01
   14.600   2.085E+01
   14.700   2.064E+01
   14.800   2.040E+01
   14.900   2.011E+01
   15.000   1.980E+01
   15.100   1.945E+01
   15.200   1.907E+01
   15.300   1.867E+01
   15.400   1.824E+01
   15.500   1.780E+01
   15.600   1.735E+01
   15.700   1.689E+01
   15.800   1.642E+01
   15.900   1.595E+01
   16.000   1.547E+01
   16.100   1.500E+01
   16.200   1.453E+01
   16.300   1.407E+01
   16.400   1.362E+01
   16.500   1.318E+01
   16.600   1.275E+01
   16.700   1.232E+01
   16.800   1.192E+01
   16.900   1.152E+01
   17.000   1.114E+01
   17.100   1.077E+01
   17.200   1.041E+01
   17.300   1.007E+01
   17.400   9.736E+00
   17.500   9.419E+00
   17.600   9.114E+00
   17.700   8.821E+00
   17.800   8.540E+00
   17.900   8.271E+00
   18.000   8.013E+00
   18.100   7.765E+00
   18.200   7.527E+00
   18.300   7.300E+00
   18.400   7.081E+00
   18.500   6.872E+00
   18.600   6.671E+00
   18.700   6.479E+00
   18.800   6.294E+00
   18.900   6.117E+00
   19.000   5.947E+00
   19.100   5.784E+00
   19.200   5.627E+00
   19.300   5.476E+00
   19.400   5.332E+00
   19.500   5.192E+00
   19.600   5.059E+00
   19.700   4.930E+00
   19.800   4.806E+00
   19.900   4.687E+00
   20.000   4.572E+00
   20.100   4.462E+00
   20.200   4.355E+00
   20.300   4.253E+00
   20.400   4.154E+00
   20.500   4.058E+00
   20.600   3.966E+00
   20.700   3.877E+00
   20.800   3.791E+00
   20.900   3.708E+00
   21.000   3.628E+00
   21.100   3.550E+00
   21.200   3.475E+00
   21.300   3.403E+00
   21.400   3.332E+00
   21.500   3.264E+00
   21.600   3.198E+00
   21.700   3.135E+00
   21.800   3.073E+00
   21.900   3.013E+00
   22.000   2.955E+00
   22.100   2.898E+00
   22.200   2.844E+00
   22.300   2.791E+00
   22.400   2.739E+00
   22.500   2.689E+00
   22.600   2.641E+00
   22.700   2.593E+00
   22.800   2.547E+00
   22.900   2.503E+00
   23.000   2.459E+00
   23.100   2.417E+00
   23.200   2.376E+00
   23.300   2.336E+00
   23.400   2.297E+00
   23.500   2.259E+00
   23.600   2.222E+00
   23.700   2.186E+00
   23.800   2.151E+00
   23.900   2.117E+00
   24.000   2.084E+00
   24.100   2.051E+00
   24.200   2.020E+00
   24.300   1.989E+00
   24.400   1.959E+00
   24.500   1.929E+00
   24.600   1.901E+00
   24.700   1.873E+00
   24.800   1.845E+00
   24.900   1.818E+00
   25.000   1.792E+00
   25.100   1.767E+00
   25.200   1.742E+00
   25.300   1.717E+00
   25.400   1.694E+00
   25.500   1.670E+00
   25.600   1.647E+00
   25.700   1.625E+00
   25.800   1.603E+00
   25.900   1.582E+00
   26.000   1.561E+00
   26.100   1.540E+00
   26.200   1.520E+00
   26.300   1.501E+00
   26.400   1.481E+00
   26.500   1.463E+00
   26.600   1.444E+00
   26.700   1.426E+00
   26.800   1.408E+00
   26.900   1.391E+00
   27.000   1.374E+00
   27.100   1.357E+00
   27.200   1.341E+00
   27.300   1.325E+00
   27.400   1.309E+00
   27.500   1.294E+00
   27.600   1.278E+00
   27.700   1.264E+00
   27.800   1.249E+00
   27.900   1.235E+00
   28.000   1.220E+00
   28.100   1.207E+00
   28.200   1.193E+00
   28.300   1.180E+00
   28.400   1.167E+00
   28.500   1.154E+00
   28.600   1.141E+00
   28.700   1.129E+00
   28.800   1.117E+00
   28.900   1.105E+00
   29.000   1.093E+00
   29.100   1.081E+00
   29.200   1.070E+00
   29.300   1.059E+00
   29.400   1.048E+00
   29.500   1.037E+00
   29.600   1.026E+00
   29.700   1.016E+00
   29.800   1.005E+00
   29.900   9.952E-01
   30.000   9.853E-01
 
 Z=  58 A= 146  D1M-QRPA
   E[MeV]   fQRPA[mb/MeV]
    0.100   2.070E-04
    0.200   8.279E-04
    0.300   1.863E-03
    0.400   3.311E-03
    0.500   5.173E-03
    0.600   7.448E-03
    0.700   1.014E-02
    0.800   1.323E-02
    0.900   1.674E-02
    1.000   2.066E-02
    1.100   2.499E-02
    1.200   2.973E-02
    1.300   3.487E-02
    1.400   4.042E-02
    1.500   4.636E-02
    1.600   5.271E-02
    1.700   5.947E-02
    1.800   6.662E-02
    1.900   7.419E-02
    2.000   8.215E-02
    2.100   9.053E-02
    2.200   9.933E-02
    2.300   1.085E-01
    2.400   1.182E-01
    2.500   1.283E-01
    2.600   1.388E-01
    2.700   1.498E-01
    2.800   1.613E-01
    2.900   1.733E-01
    3.000   1.858E-01
    3.100   1.989E-01
    3.200   2.124E-01
    3.300   2.266E-01
    3.400   2.414E-01
    3.500   2.568E-01
    3.600   2.728E-01
    3.700   2.895E-01
    3.800   3.069E-01
    3.900   3.250E-01
    4.000   3.440E-01
    4.100   3.637E-01
    4.200   3.842E-01
    4.300   4.056E-01
    4.400   4.279E-01
    4.500   4.512E-01
    4.600   4.754E-01
    4.700   5.007E-01
    4.800   5.270E-01
    4.900   5.544E-01
    5.000   5.830E-01
    5.100   6.128E-01
    5.200   6.439E-01
    5.300   6.763E-01
    5.400   7.100E-01
    5.500   7.452E-01
    5.600   7.819E-01
    5.700   8.202E-01
    5.800   8.600E-01
    5.900   9.016E-01
    6.000   9.449E-01
    6.100   9.901E-01
    6.200   1.037E+00
    6.300   1.086E+00
    6.400   1.137E+00
    6.500   1.191E+00
    6.600   1.246E+00
    6.700   1.304E+00
    6.800   1.365E+00
    6.900   1.428E+00
    7.000   1.494E+00
    7.100   1.562E+00
    7.200   1.633E+00
    7.300   1.708E+00
    7.400   1.785E+00
    7.500   1.866E+00
    7.600   1.950E+00
    7.700   2.037E+00
    7.800   2.128E+00
    7.900   2.223E+00
    8.000   2.323E+00
    8.100   2.426E+00
    8.200   2.533E+00
    8.300   2.646E+00
    8.400   2.763E+00
    8.500   2.885E+00
    8.600   3.013E+00
    8.700   3.146E+00
    8.800   3.285E+00
    8.900   3.431E+00
    9.000   3.583E+00
    9.100   3.741E+00
    9.200   3.908E+00
    9.300   4.081E+00
    9.400   4.263E+00
    9.500   4.453E+00
    9.600   4.652E+00
    9.700   4.860E+00
    9.800   5.078E+00
    9.900   5.306E+00
   10.000   5.544E+00
   10.100   5.794E+00
   10.200   6.055E+00
   10.300   6.327E+00
   10.400   6.612E+00
   10.500   6.910E+00
   10.600   7.221E+00
   10.700   7.546E+00
   10.800   7.884E+00
   10.900   8.237E+00
   11.000   8.605E+00
   11.100   8.987E+00
   11.200   9.384E+00
   11.300   9.797E+00
   11.400   1.022E+01
   11.500   1.067E+01
   11.600   1.112E+01
   11.700   1.159E+01
   11.800   1.207E+01
   11.900   1.257E+01
   12.000   1.307E+01
   12.100   1.359E+01
   12.200   1.411E+01
   12.300   1.463E+01
   12.400   1.516E+01
   12.500   1.568E+01
   12.600   1.620E+01
   12.700   1.672E+01
   12.800   1.722E+01
   12.900   1.770E+01
   13.000   1.817E+01
   13.100   1.862E+01
   13.200   1.904E+01
   13.300   1.943E+01
   13.400   1.979E+01
   13.500   2.011E+01
   13.600   2.039E+01
   13.700   2.064E+01
   13.800   2.084E+01
   13.900   2.099E+01
   14.000   2.110E+01
   14.100   2.117E+01
   14.200   2.118E+01
   14.300   2.115E+01
   14.400   2.108E+01
   14.500   2.095E+01
   14.600   2.079E+01
   14.700   2.058E+01
   14.800   2.034E+01
   14.900   2.006E+01
   15.000   1.974E+01
   15.100   1.939E+01
   15.200   1.902E+01
   15.300   1.862E+01
   15.400   1.821E+01
   15.500   1.778E+01
   15.600   1.733E+01
   15.700   1.687E+01
   15.800   1.641E+01
   15.900   1.595E+01
   16.000   1.549E+01
   16.100   1.502E+01
   16.200   1.456E+01
   16.300   1.411E+01
   16.400   1.367E+01
   16.500   1.323E+01
   16.600   1.281E+01
   16.700   1.239E+01
   16.800   1.199E+01
   16.900   1.160E+01
   17.000   1.122E+01
   17.100   1.086E+01
   17.200   1.051E+01
   17.300   1.017E+01
   17.400   9.839E+00
   17.500   9.525E+00
   17.600   9.223E+00
   17.700   8.932E+00
   17.800   8.653E+00
   17.900   8.385E+00
   18.000   8.128E+00
   18.100   7.881E+00
   18.200   7.645E+00
   18.300   7.417E+00
   18.400   7.199E+00
   18.500   6.990E+00
   18.600   6.789E+00
   18.700   6.597E+00
   18.800   6.411E+00
   18.900   6.234E+00
   19.000   6.063E+00
   19.100   5.899E+00
   19.200   5.742E+00
   19.300   5.590E+00
   19.400   5.444E+00
   19.500   5.304E+00
   19.600   5.169E+00
   19.700   5.040E+00
   19.800   4.915E+00
   19.900   4.795E+00
   20.000   4.679E+00
   20.100   4.567E+00
   20.200   4.459E+00
   20.300   4.355E+00
   20.400   4.255E+00
   20.500   4.158E+00
   20.600   4.065E+00
   20.700   3.975E+00
   20.800   3.887E+00
   20.900   3.803E+00
   21.000   3.722E+00
   21.100   3.643E+00
   21.200   3.567E+00
   21.300   3.493E+00
   21.400   3.422E+00
   21.500   3.352E+00
   21.600   3.285E+00
   21.700   3.221E+00
   21.800   3.158E+00
   21.900   3.097E+00
   22.000   3.037E+00
   22.100   2.980E+00
   22.200   2.924E+00
   22.300   2.870E+00
   22.400   2.818E+00
   22.500   2.767E+00
   22.600   2.717E+00
   22.700   2.669E+00
   22.800   2.622E+00
   22.900   2.576E+00
   23.000   2.532E+00
   23.100   2.489E+00
   23.200   2.447E+00
   23.300   2.406E+00
   23.400   2.366E+00
   23.500   2.327E+00
   23.600   2.290E+00
   23.700   2.253E+00
   23.800   2.217E+00
   23.900   2.182E+00
   24.000   2.148E+00
   24.100   2.115E+00
   24.200   2.082E+00
   24.300   2.051E+00
   24.400   2.020E+00
   24.500   1.990E+00
   24.600   1.960E+00
   24.700   1.931E+00
   24.800   1.903E+00
   24.900   1.876E+00
   25.000   1.849E+00
   25.100   1.823E+00
   25.200   1.797E+00
   25.300   1.772E+00
   25.400   1.748E+00
   25.500   1.724E+00
   25.600   1.700E+00
   25.700   1.678E+00
   25.800   1.655E+00
   25.900   1.633E+00
   26.000   1.612E+00
   26.100   1.591E+00
   26.200   1.570E+00
   26.300   1.550E+00
   26.400   1.530E+00
   26.500   1.511E+00
   26.600   1.492E+00
   26.700   1.473E+00
   26.800   1.455E+00
   26.900   1.437E+00
   27.000   1.420E+00
   27.100   1.402E+00
   27.200   1.386E+00
   27.300   1.369E+00
   27.400   1.353E+00
   27.500   1.337E+00
   27.600   1.321E+00
   27.700   1.306E+00
   27.800   1.291E+00
   27.900   1.276E+00
   28.000   1.262E+00
   28.100   1.247E+00
   28.200   1.233E+00
   28.300   1.220E+00
   28.400   1.206E+00
   28.500   1.193E+00
   28.600   1.180E+00
   28.700   1.167E+00
   28.800   1.155E+00
   28.900   1.142E+00
   29.000   1.130E+00
   29.100   1.118E+00
   29.200   1.107E+00
   29.300   1.095E+00
   29.400   1.084E+00
   29.500   1.073E+00
   29.600   1.062E+00
   29.700   1.051E+00
   29.800   1.040E+00
   29.900   1.030E+00
   30.000   1.019E+00
 
 Z=  58 A= 147  D1M-QRPA-Inter
 E[MeV]  fQRPA[mb/MeV]
    0.100   1.516E-03
    0.200   4.046E-03
    0.300   6.911E-03
    0.400   1.002E-02
    0.500   1.333E-02
    0.600   1.681E-02
    0.700   2.047E-02
    0.800   2.430E-02
    0.900   2.832E-02
    1.000   3.256E-02
    1.100   3.701E-02
    1.200   4.172E-02
    1.300   4.668E-02
    1.400   5.193E-02
    1.500   5.748E-02
    1.600   6.333E-02
    1.700   6.951E-02
    1.800   7.603E-02
    1.900   8.291E-02
    2.000   9.015E-02
    2.100   9.777E-02
    2.200   1.058E-01
    2.300   1.142E-01
    2.400   1.231E-01
    2.500   1.323E-01
    2.600   1.421E-01
    2.700   1.523E-01
    2.800   1.630E-01
    2.900   1.743E-01
    3.000   1.860E-01
    3.100   1.984E-01
    3.200   2.113E-01
    3.300   2.249E-01
    3.400   2.391E-01
    3.500   2.541E-01
    3.600   2.699E-01
    3.700   2.865E-01
    3.800   3.040E-01
    3.900   3.224E-01
    4.000   3.419E-01
    4.100   3.625E-01
    4.200   3.842E-01
    4.300   4.072E-01
    4.400   4.314E-01
    4.500   4.568E-01
    4.600   4.836E-01
    4.700   5.116E-01
    4.800   5.410E-01
    4.900   5.716E-01
    5.000   6.034E-01
    5.100   6.365E-01
    5.200   6.707E-01
    5.300   7.060E-01
    5.400   7.424E-01
    5.500   7.799E-01
    5.600   8.184E-01
    5.700   8.580E-01
    5.800   8.988E-01
    5.900   9.407E-01
    6.000   9.839E-01
    6.100   1.029E+00
    6.200   1.075E+00
    6.300   1.123E+00
    6.400   1.172E+00
    6.500   1.224E+00
    6.600   1.278E+00
    6.700   1.334E+00
    6.800   1.392E+00
    6.900   1.454E+00
    7.000   1.518E+00
    7.100   1.585E+00
    7.200   1.656E+00
    7.300   1.729E+00
    7.400   1.807E+00
    7.500   1.888E+00
    7.600   1.973E+00
    7.700   2.062E+00
    7.800   2.155E+00
    7.900   2.252E+00
    8.000   2.354E+00
    8.100   2.461E+00
    8.200   2.572E+00
    8.300   2.689E+00
    8.400   2.812E+00
    8.500   2.940E+00
    8.600   3.075E+00
    8.700   3.216E+00
    8.800   3.365E+00
    8.900   3.521E+00
    9.000   3.685E+00
    9.100   3.859E+00
    9.200   4.041E+00
    9.300   4.234E+00
    9.400   4.437E+00
    9.500   4.651E+00
    9.600   4.878E+00
    9.700   5.117E+00
    9.800   5.370E+00
    9.900   5.638E+00
   10.000   5.922E+00
   10.100   6.222E+00
   10.200   6.539E+00
   10.300   6.875E+00
   10.400   7.230E+00
   10.500   7.606E+00
   10.600   8.002E+00
   10.700   8.421E+00
   10.800   8.862E+00
   10.900   9.325E+00
   11.000   9.810E+00
   11.100   1.032E+01
   11.200   1.084E+01
   11.300   1.138E+01
   11.400   1.192E+01
   11.500   1.248E+01
   11.600   1.303E+01
   11.700   1.358E+01
   11.800   1.411E+01
   11.900   1.462E+01
   12.000   1.510E+01
   12.100   1.555E+01
   12.200   1.597E+01
   12.300   1.635E+01
   12.400   1.670E+01
   12.500   1.702E+01
   12.600   1.730E+01
   12.700   1.756E+01
   12.800   1.780E+01
   12.900   1.803E+01
   13.000   1.824E+01
   13.100   1.843E+01
   13.200   1.862E+01
   13.300   1.880E+01
   13.400   1.897E+01
   13.500   1.912E+01
   13.600   1.927E+01
   13.700   1.940E+01
   13.800   1.951E+01
   13.900   1.959E+01
   14.000   1.966E+01
   14.100   1.969E+01
   14.200   1.969E+01
   14.300   1.966E+01
   14.400   1.960E+01
   14.500   1.951E+01
   14.600   1.938E+01
   14.700   1.923E+01
   14.800   1.905E+01
   14.900   1.884E+01
   15.000   1.862E+01
   15.100   1.838E+01
   15.200   1.814E+01
   15.300   1.788E+01
   15.400   1.761E+01
   15.500   1.734E+01
   15.600   1.706E+01
   15.700   1.678E+01
   15.800   1.648E+01
   15.900   1.618E+01
   16.000   1.586E+01
   16.100   1.553E+01
   16.200   1.519E+01
   16.300   1.484E+01
   16.400   1.447E+01
   16.500   1.409E+01
   16.600   1.371E+01
   16.700   1.331E+01
   16.800   1.291E+01
   16.900   1.251E+01
   17.000   1.211E+01
   17.100   1.171E+01
   17.200   1.131E+01
   17.300   1.092E+01
   17.400   1.054E+01
   17.500   1.018E+01
   17.600   9.824E+00
   17.700   9.484E+00
   17.800   9.160E+00
   17.900   8.852E+00
   18.000   8.561E+00
   18.100   8.286E+00
   18.200   8.026E+00
   18.300   7.782E+00
   18.400   7.551E+00
   18.500   7.334E+00
   18.600   7.129E+00
   18.700   6.934E+00
   18.800   6.750E+00
   18.900   6.574E+00
   19.000   6.405E+00
   19.100   6.244E+00
   19.200   6.089E+00
   19.300   5.940E+00
   19.400   5.796E+00
   19.500   5.656E+00
   19.600   5.520E+00
   19.700   5.389E+00
   19.800   5.261E+00
   19.900   5.136E+00
   20.000   5.015E+00
   20.100   4.896E+00
   20.200   4.780E+00
   20.300   4.667E+00
   20.400   4.557E+00
   20.500   4.450E+00
   20.600   4.345E+00
   20.700   4.243E+00
   20.800   4.144E+00
   20.900   4.048E+00
   21.000   3.955E+00
   21.100   3.864E+00
   21.200   3.776E+00
   21.300   3.691E+00
   21.400   3.609E+00
   21.500   3.529E+00
   21.600   3.451E+00
   21.700   3.375E+00
   21.800   3.302E+00
   21.900   3.231E+00
   22.000   3.161E+00
   22.100   3.093E+00
   22.200   3.027E+00
   22.300   2.962E+00
   22.400   2.898E+00
   22.500   2.836E+00
   22.600   2.776E+00
   22.700   2.716E+00
   22.800   2.658E+00
   22.900   2.601E+00
   23.000   2.545E+00
   23.100   2.490E+00
   23.200   2.437E+00
   23.300   2.385E+00
   23.400   2.334E+00
   23.500   2.284E+00
   23.600   2.236E+00
   23.700   2.189E+00
   23.800   2.143E+00
   23.900   2.098E+00
   24.000   2.055E+00
   24.100   2.012E+00
   24.200   1.971E+00
   24.300   1.931E+00
   24.400   1.893E+00
   24.500   1.855E+00
   24.600   1.818E+00
   24.700   1.783E+00
   24.800   1.749E+00
   24.900   1.715E+00
   25.000   1.683E+00
   25.100   1.652E+00
   25.200   1.621E+00
   25.300   1.592E+00
   25.400   1.563E+00
   25.500   1.535E+00
   25.600   1.508E+00
   25.700   1.481E+00
   25.800   1.455E+00
   25.900   1.430E+00
   26.000   1.406E+00
   26.100   1.382E+00
   26.200   1.359E+00
   26.300   1.336E+00
   26.400   1.314E+00
   26.500   1.293E+00
   26.600   1.272E+00
   26.700   1.252E+00
   26.800   1.232E+00
   26.900   1.213E+00
   27.000   1.194E+00
   27.100   1.176E+00
   27.200   1.159E+00
   27.300   1.141E+00
   27.400   1.125E+00
   27.500   1.109E+00
   27.600   1.093E+00
   27.700   1.078E+00
   27.800   1.063E+00
   27.900   1.048E+00
   28.000   1.034E+00
   28.100   1.020E+00
   28.200   1.007E+00
   28.300   9.936E-01
   28.400   9.808E-01
   28.500   9.683E-01
   28.600   9.560E-01
   28.700   9.441E-01
   28.800   9.325E-01
   28.900   9.211E-01
   29.000   9.099E-01
   29.100   8.990E-01
   29.200   8.883E-01
   29.300   8.779E-01
   29.400   8.676E-01
   29.500   8.576E-01
   29.600   8.478E-01
   29.700   8.382E-01
   29.800   8.287E-01
   29.900   8.195E-01
   30.000   8.104E-01
 
 Z=  58 A= 148  D1M-QRPA
   E[MeV]   fQRPA[mb/MeV]
    0.100   1.091E-02
    0.200   1.941E-02
    0.300   2.517E-02
    0.400   2.975E-02
    0.500   3.369E-02
    0.600   3.724E-02
    0.700   4.056E-02
    0.800   4.379E-02
    0.900   4.703E-02
    1.000   5.034E-02
    1.100   5.381E-02
    1.200   5.746E-02
    1.300   6.135E-02
    1.400   6.550E-02
    1.500   6.994E-02
    1.600   7.468E-02
    1.700   7.975E-02
    1.800   8.517E-02
    1.900   9.095E-02
    2.000   9.710E-02
    2.100   1.036E-01
    2.200   1.106E-01
    2.300   1.179E-01
    2.400   1.257E-01
    2.500   1.340E-01
    2.600   1.427E-01
    2.700   1.520E-01
    2.800   1.617E-01
    2.900   1.720E-01
    3.000   1.828E-01
    3.100   1.943E-01
    3.200   2.063E-01
    3.300   2.191E-01
    3.400   2.326E-01
    3.500   2.469E-01
    3.600   2.621E-01
    3.700   2.782E-01
    3.800   2.955E-01
    3.900   3.139E-01
    4.000   3.336E-01
    4.100   3.547E-01
    4.200   3.772E-01
    4.300   4.012E-01
    4.400   4.268E-01
    4.500   4.540E-01
    4.600   4.828E-01
    4.700   5.132E-01
    4.800   5.451E-01
    4.900   5.784E-01
    5.000   6.130E-01
    5.100   6.489E-01
    5.200   6.857E-01
    5.300   7.234E-01
    5.400   7.619E-01
    5.500   8.011E-01
    5.600   8.408E-01
    5.700   8.811E-01
    5.800   9.220E-01
    5.900   9.634E-01
    6.000   1.006E+00
    6.100   1.049E+00
    6.200   1.093E+00
    6.300   1.139E+00
    6.400   1.186E+00
    6.500   1.234E+00
    6.600   1.285E+00
    6.700   1.339E+00
    6.800   1.394E+00
    6.900   1.453E+00
    7.000   1.514E+00
    7.100   1.579E+00
    7.200   1.647E+00
    7.300   1.719E+00
    7.400   1.795E+00
    7.500   1.875E+00
    7.600   1.960E+00
    7.700   2.048E+00
    7.800   2.141E+00
    7.900   2.239E+00
    8.000   2.342E+00
    8.100   2.450E+00
    8.200   2.564E+00
    8.300   2.683E+00
    8.400   2.809E+00
    8.500   2.941E+00
    8.600   3.080E+00
    8.700   3.227E+00
    8.800   3.382E+00
    8.900   3.547E+00
    9.000   3.721E+00
    9.100   3.906E+00
    9.200   4.102E+00
    9.300   4.311E+00
    9.400   4.532E+00
    9.500   4.768E+00
    9.600   5.020E+00
    9.700   5.288E+00
    9.800   5.575E+00
    9.900   5.881E+00
   10.000   6.208E+00
   10.100   6.558E+00
   10.200   6.932E+00
   10.300   7.332E+00
   10.400   7.760E+00
   10.500   8.217E+00
   10.600   8.705E+00
   10.700   9.225E+00
   10.800   9.778E+00
   10.900   1.036E+01
   11.000   1.098E+01
   11.100   1.162E+01
   11.200   1.229E+01
   11.300   1.297E+01
   11.400   1.365E+01
   11.500   1.433E+01
   11.600   1.499E+01
   11.700   1.561E+01
   11.800   1.618E+01
   11.900   1.668E+01
   12.000   1.712E+01
   12.100   1.747E+01
   12.200   1.774E+01
   12.300   1.794E+01
   12.400   1.806E+01
   12.500   1.812E+01
   12.600   1.814E+01
   12.700   1.811E+01
   12.800   1.807E+01
   12.900   1.802E+01
   13.000   1.796E+01
   13.100   1.791E+01
   13.200   1.787E+01
   13.300   1.785E+01
   13.400   1.784E+01
   13.500   1.785E+01
   13.600   1.787E+01
   13.700   1.789E+01
   13.800   1.792E+01
   13.900   1.795E+01
   14.000   1.797E+01
   14.100   1.798E+01
   14.200   1.797E+01
   14.300   1.794E+01
   14.400   1.790E+01
   14.500   1.782E+01
   14.600   1.773E+01
   14.700   1.763E+01
   14.800   1.751E+01
   14.900   1.738E+01
   15.000   1.724E+01
   15.100   1.710E+01
   15.200   1.697E+01
   15.300   1.684E+01
   15.400   1.672E+01
   15.500   1.660E+01
   15.600   1.649E+01
   15.700   1.637E+01
   15.800   1.625E+01
   15.900   1.611E+01
   16.000   1.595E+01
   16.100   1.577E+01
   16.200   1.556E+01
   16.300   1.531E+01
   16.400   1.504E+01
   16.500   1.474E+01
   16.600   1.440E+01
   16.700   1.404E+01
   16.800   1.365E+01
   16.900   1.324E+01
   17.000   1.282E+01
   17.100   1.239E+01
   17.200   1.196E+01
   17.300   1.152E+01
   17.400   1.109E+01
   17.500   1.067E+01
   17.600   1.027E+01
   17.700   9.884E+00
   17.800   9.518E+00
   17.900   9.173E+00
   18.000   8.850E+00
   18.100   8.550E+00
   18.200   8.272E+00
   18.300   8.014E+00
   18.400   7.775E+00
   18.500   7.553E+00
   18.600   7.347E+00
   18.700   7.155E+00
   18.800   6.975E+00
   18.900   6.804E+00
   19.000   6.642E+00
   19.100   6.488E+00
   19.200   6.339E+00
   19.300   6.195E+00
   19.400   6.056E+00
   19.500   5.920E+00
   19.600   5.787E+00
   19.700   5.656E+00
   19.800   5.528E+00
   19.900   5.401E+00
   20.000   5.276E+00
   20.100   5.152E+00
   20.200   5.030E+00
   20.300   4.910E+00
   20.400   4.791E+00
   20.500   4.674E+00
   20.600   4.559E+00
   20.700   4.446E+00
   20.800   4.336E+00
   20.900   4.229E+00
   21.000   4.124E+00
   21.100   4.023E+00
   21.200   3.924E+00
   21.300   3.828E+00
   21.400   3.736E+00
   21.500   3.645E+00
   21.600   3.558E+00
   21.700   3.473E+00
   21.800   3.389E+00
   21.900   3.308E+00
   22.000   3.229E+00
   22.100   3.151E+00
   22.200   3.075E+00
   22.300   3.000E+00
   22.400   2.927E+00
   22.500   2.854E+00
   22.600   2.783E+00
   22.700   2.714E+00
   22.800   2.645E+00
   22.900   2.577E+00
   23.000   2.511E+00
   23.100   2.446E+00
   23.200   2.383E+00
   23.300   2.321E+00
   23.400   2.260E+00
   23.500   2.201E+00
   23.600   2.143E+00
   23.700   2.087E+00
   23.800   2.033E+00
   23.900   1.980E+00
   24.000   1.929E+00
   24.100   1.880E+00
   24.200   1.832E+00
   24.300   1.785E+00
   24.400   1.741E+00
   24.500   1.698E+00
   24.600   1.656E+00
   24.700   1.616E+00
   24.800   1.577E+00
   24.900   1.540E+00
   25.000   1.504E+00
   25.100   1.469E+00
   25.200   1.435E+00
   25.300   1.403E+00
   25.400   1.372E+00
   25.500   1.341E+00
   25.600   1.312E+00
   25.700   1.284E+00
   25.800   1.256E+00
   25.900   1.230E+00
   26.000   1.204E+00
   26.100   1.179E+00
   26.200   1.155E+00
   26.300   1.131E+00
   26.400   1.108E+00
   26.500   1.086E+00
   26.600   1.065E+00
   26.700   1.044E+00
   26.800   1.024E+00
   26.900   1.005E+00
   27.000   9.862E-01
   27.100   9.682E-01
   27.200   9.509E-01
   27.300   9.341E-01
   27.400   9.179E-01
   27.500   9.023E-01
   27.600   8.872E-01
   27.700   8.726E-01
   27.800   8.585E-01
   27.900   8.449E-01
   28.000   8.317E-01
   28.100   8.188E-01
   28.200   8.064E-01
   28.300   7.944E-01
   28.400   7.827E-01
   28.500   7.713E-01
   28.600   7.603E-01
   28.700   7.496E-01
   28.800   7.391E-01
   28.900   7.289E-01
   29.000   7.190E-01
   29.100   7.094E-01
   29.200   7.000E-01
   29.300   6.908E-01
   29.400   6.819E-01
   29.500   6.731E-01
   29.600   6.646E-01
   29.700   6.563E-01
   29.800   6.481E-01
   29.900   6.402E-01
   30.000   6.324E-01
 
 Z=  58 A= 149  D1M-QRPA-Inter
 E[MeV]  fQRPA[mb/MeV]
    0.100   2.291E-02
    0.200   3.322E-02
    0.300   3.908E-02
    0.400   4.338E-02
    0.500   4.687E-02
    0.600   4.989E-02
    0.700   5.263E-02
    0.800   5.528E-02
    0.900   5.793E-02
    1.000   6.068E-02
    1.100   6.357E-02
    1.200   6.661E-02
    1.300   6.983E-02
    1.400   7.324E-02
    1.500   7.684E-02
    1.600   8.067E-02
    1.700   8.477E-02
    1.800   8.918E-02
    1.900   9.395E-02
    2.000   9.912E-02
    2.100   1.048E-01
    2.200   1.109E-01
    2.300   1.176E-01
    2.400   1.249E-01
    2.500   1.328E-01
    2.600   1.414E-01
    2.700   1.508E-01
    2.800   1.608E-01
    2.900   1.717E-01
    3.000   1.835E-01
    3.100   1.961E-01
    3.200   2.097E-01
    3.300   2.243E-01
    3.400   2.399E-01
    3.500   2.567E-01
    3.600   2.746E-01
    3.700   2.935E-01
    3.800   3.136E-01
    3.900   3.345E-01
    4.000   3.564E-01
    4.100   3.792E-01
    4.200   4.027E-01
    4.300   4.269E-01
    4.400   4.517E-01
    4.500   4.772E-01
    4.600   5.032E-01
    4.700   5.299E-01
    4.800   5.571E-01
    4.900   5.852E-01
    5.000   6.142E-01
    5.100   6.443E-01
    5.200   6.757E-01
    5.300   7.085E-01
    5.400   7.428E-01
    5.500   7.786E-01
    5.600   8.160E-01
    5.700   8.551E-01
    5.800   8.957E-01
    5.900   9.380E-01
    6.000   9.817E-01
    6.100   1.027E+00
    6.200   1.073E+00
    6.300   1.121E+00
    6.400   1.171E+00
    6.500   1.222E+00
    6.600   1.274E+00
    6.700   1.329E+00
    6.800   1.386E+00
    6.900   1.446E+00
    7.000   1.509E+00
    7.100   1.575E+00
    7.200   1.646E+00
    7.300   1.720E+00
    7.400   1.800E+00
    7.500   1.885E+00
    7.600   1.975E+00
    7.700   2.070E+00
    7.800   2.170E+00
    7.900   2.277E+00
    8.000   2.389E+00
    8.100   2.508E+00
    8.200   2.633E+00
    8.300   2.767E+00
    8.400   2.910E+00
    8.500   3.063E+00
    8.600   3.227E+00
    8.700   3.404E+00
    8.800   3.596E+00
    8.900   3.804E+00
    9.000   4.030E+00
    9.100   4.275E+00
    9.200   4.541E+00
    9.300   4.831E+00
    9.400   5.146E+00
    9.500   5.489E+00
    9.600   5.861E+00
    9.700   6.266E+00
    9.800   6.706E+00
    9.900   7.183E+00
   10.000   7.701E+00
   10.100   8.263E+00
   10.200   8.869E+00
   10.300   9.521E+00
   10.400   1.022E+01
   10.500   1.095E+01
   10.600   1.170E+01
   10.700   1.245E+01
   10.800   1.319E+01
   10.900   1.387E+01
   11.000   1.449E+01
   11.100   1.501E+01
   11.200   1.543E+01
   11.300   1.574E+01
   11.400   1.595E+01
   11.500   1.608E+01
   11.600   1.615E+01
   11.700   1.617E+01
   11.800   1.617E+01
   11.900   1.615E+01
   12.000   1.613E+01
   12.100   1.611E+01
   12.200   1.610E+01
   12.300   1.609E+01
   12.400   1.610E+01
   12.500   1.611E+01
   12.600   1.614E+01
   12.700   1.618E+01
   12.800   1.624E+01
   12.900   1.631E+01
   13.000   1.638E+01
   13.100   1.647E+01
   13.200   1.656E+01
   13.300   1.665E+01
   13.400   1.674E+01
   13.500   1.681E+01
   13.600   1.688E+01
   13.700   1.692E+01
   13.800   1.695E+01
   13.900   1.695E+01
   14.000   1.694E+01
   14.100   1.691E+01
   14.200   1.688E+01
   14.300   1.684E+01
   14.400   1.681E+01
   14.500   1.679E+01
   14.600   1.678E+01
   14.700   1.676E+01
   14.800   1.674E+01
   14.900   1.670E+01
   15.000   1.662E+01
   15.100   1.650E+01
   15.200   1.633E+01
   15.300   1.611E+01
   15.400   1.582E+01
   15.500   1.548E+01
   15.600   1.510E+01
   15.700   1.469E+01
   15.800   1.426E+01
   15.900   1.382E+01
   16.000   1.338E+01
   16.100   1.295E+01
   16.200   1.253E+01
   16.300   1.213E+01
   16.400   1.175E+01
   16.500   1.137E+01
   16.600   1.102E+01
   16.700   1.067E+01
   16.800   1.034E+01
   16.900   1.001E+01
   17.000   9.696E+00
   17.100   9.390E+00
   17.200   9.094E+00
   17.300   8.807E+00
   17.400   8.528E+00
   17.500   8.258E+00
   17.600   7.995E+00
   17.700   7.740E+00
   17.800   7.493E+00
   17.900   7.254E+00
   18.000   7.025E+00
   18.100   6.805E+00
   18.200   6.596E+00
   18.300   6.398E+00
   18.400   6.210E+00
   18.500   6.033E+00
   18.600   5.867E+00
   18.700   5.710E+00
   18.800   5.561E+00
   18.900   5.419E+00
   19.000   5.283E+00
   19.100   5.150E+00
   19.200   5.019E+00
   19.300   4.890E+00
   19.400   4.761E+00
   19.500   4.633E+00
   19.600   4.505E+00
   19.700   4.376E+00
   19.800   4.248E+00
   19.900   4.120E+00
   20.000   3.992E+00
   20.100   3.866E+00
   20.200   3.741E+00
   20.300   3.618E+00
   20.400   3.497E+00
   20.500   3.378E+00
   20.600   3.263E+00
   20.700   3.151E+00
   20.800   3.044E+00
   20.900   2.942E+00
   21.000   2.844E+00
   21.100   2.752E+00
   21.200   2.664E+00
   21.300   2.581E+00
   21.400   2.502E+00
   21.500   2.427E+00
   21.600   2.354E+00
   21.700   2.284E+00
   21.800   2.217E+00
   21.900   2.152E+00
   22.000   2.088E+00
   22.100   2.026E+00
   22.200   1.966E+00
   22.300   1.907E+00
   22.400   1.850E+00
   22.500   1.795E+00
   22.600   1.742E+00
   22.700   1.691E+00
   22.800   1.642E+00
   22.900   1.595E+00
   23.000   1.550E+00
   23.100   1.507E+00
   23.200   1.466E+00
   23.300   1.426E+00
   23.400   1.389E+00
   23.500   1.352E+00
   23.600   1.318E+00
   23.700   1.284E+00
   23.800   1.252E+00
   23.900   1.222E+00
   24.000   1.192E+00
   24.100   1.164E+00
   24.200   1.136E+00
   24.300   1.110E+00
   24.400   1.085E+00
   24.500   1.060E+00
   24.600   1.037E+00
   24.700   1.014E+00
   24.800   9.926E-01
   24.900   9.716E-01
   25.000   9.513E-01
   25.100   9.318E-01
   25.200   9.129E-01
   25.300   8.946E-01
   25.400   8.770E-01
   25.500   8.599E-01
   25.600   8.433E-01
   25.700   8.273E-01
   25.800   8.118E-01
   25.900   7.967E-01
   26.000   7.821E-01
   26.100   7.679E-01
   26.200   7.541E-01
   26.300   7.407E-01
   26.400   7.277E-01
   26.500   7.150E-01
   26.600   7.028E-01
   26.700   6.908E-01
   26.800   6.793E-01
   26.900   6.681E-01
   27.000   6.572E-01
   27.100   6.467E-01
   27.200   6.365E-01
   27.300   6.265E-01
   27.400   6.169E-01
   27.500   6.076E-01
   27.600   5.985E-01
   27.700   5.897E-01
   27.800   5.811E-01
   27.900   5.728E-01
   28.000   5.647E-01
   28.100   5.568E-01
   28.200   5.491E-01
   28.300   5.417E-01
   28.400   5.344E-01
   28.500   5.273E-01
   28.600   5.203E-01
   28.700   5.136E-01
   28.800   5.070E-01
   28.900   5.005E-01
   29.000   4.942E-01
   29.100   4.881E-01
   29.200   4.821E-01
   29.300   4.762E-01
   29.400   4.704E-01
   29.500   4.648E-01
   29.600   4.593E-01
   29.700   4.539E-01
   29.800   4.486E-01
   29.900   4.434E-01
   30.000   4.384E-01
 
 Z=  58 A= 150  D1M-QRPA
   E[MeV]   fQRPA[mb/MeV]
    0.100   4.498E-02
    0.200   5.314E-02
    0.300   5.673E-02
    0.400   5.914E-02
    0.500   6.096E-02
    0.600   6.247E-02
    0.700   6.385E-02
    0.800   6.523E-02
    0.900   6.672E-02
    1.000   6.838E-02
    1.100   7.021E-02
    1.200   7.219E-02
    1.300   7.431E-02
    1.400   7.655E-02
    1.500   7.893E-02
    1.600   8.147E-02
    1.700   8.423E-02
    1.800   8.730E-02
    1.900   9.073E-02
    2.000   9.460E-02
    2.100   9.899E-02
    2.200   1.040E-01
    2.300   1.096E-01
    2.400   1.159E-01
    2.500   1.230E-01
    2.600   1.310E-01
    2.700   1.398E-01
    2.800   1.496E-01
    2.900   1.603E-01
    3.000   1.721E-01
    3.100   1.851E-01
    3.200   1.992E-01
    3.300   2.146E-01
    3.400   2.314E-01
    3.500   2.495E-01
    3.600   2.689E-01
    3.700   2.895E-01
    3.800   3.110E-01
    3.900   3.333E-01
    4.000   3.560E-01
    4.100   3.789E-01
    4.200   4.018E-01
    4.300   4.246E-01
    4.400   4.469E-01
    4.500   4.689E-01
    4.600   4.903E-01
    4.700   5.114E-01
    4.800   5.324E-01
    4.900   5.535E-01
    5.000   5.753E-01
    5.100   5.982E-01
    5.200   6.225E-01
    5.300   6.487E-01
    5.400   6.770E-01
    5.500   7.075E-01
    5.600   7.404E-01
    5.700   7.758E-01
    5.800   8.136E-01
    5.900   8.537E-01
    6.000   8.959E-01
    6.100   9.399E-01
    6.200   9.854E-01
    6.300   1.032E+00
    6.400   1.081E+00
    6.500   1.130E+00
    6.600   1.181E+00
    6.700   1.234E+00
    6.800   1.288E+00
    6.900   1.345E+00
    7.000   1.405E+00
    7.100   1.469E+00
    7.200   1.537E+00
    7.300   1.609E+00
    7.400   1.687E+00
    7.500   1.771E+00
    7.600   1.860E+00
    7.700   1.955E+00
    7.800   2.056E+00
    7.900   2.164E+00
    8.000   2.278E+00
    8.100   2.399E+00
    8.200   2.529E+00
    8.300   2.668E+00
    8.400   2.818E+00
    8.500   2.982E+00
    8.600   3.161E+00
    8.700   3.357E+00
    8.800   3.574E+00
    8.900   3.814E+00
    9.000   4.080E+00
    9.100   4.374E+00
    9.200   4.700E+00
    9.300   5.062E+00
    9.400   5.463E+00
    9.500   5.907E+00
    9.600   6.398E+00
    9.700   6.941E+00
    9.800   7.541E+00
    9.900   8.202E+00
   10.000   8.931E+00
   10.100   9.732E+00
   10.200   1.061E+01
   10.300   1.156E+01
   10.400   1.257E+01
   10.500   1.363E+01
   10.600   1.469E+01
   10.700   1.571E+01
   10.800   1.663E+01
   10.900   1.737E+01
   11.000   1.788E+01
   11.100   1.812E+01
   11.200   1.811E+01
   11.300   1.785E+01
   11.400   1.742E+01
   11.500   1.687E+01
   11.600   1.627E+01
   11.700   1.567E+01
   11.800   1.511E+01
   11.900   1.462E+01
   12.000   1.421E+01
   12.100   1.389E+01
   12.200   1.365E+01
   12.300   1.350E+01
   12.400   1.341E+01
   12.500   1.340E+01
   12.600   1.343E+01
   12.700   1.352E+01
   12.800   1.364E+01
   12.900   1.380E+01
   13.000   1.397E+01
   13.100   1.416E+01
   13.200   1.434E+01
   13.300   1.452E+01
   13.400   1.468E+01
   13.500   1.481E+01
   13.600   1.491E+01
   13.700   1.496E+01
   13.800   1.498E+01
   13.900   1.497E+01
   14.000   1.493E+01
   14.100   1.487E+01
   14.200   1.482E+01
   14.300   1.478E+01
   14.400   1.477E+01
   14.500   1.479E+01
   14.600   1.483E+01
   14.700   1.490E+01
   14.800   1.496E+01
   14.900   1.500E+01
   15.000   1.498E+01
   15.100   1.489E+01
   15.200   1.470E+01
   15.300   1.440E+01
   15.400   1.399E+01
   15.500   1.350E+01
   15.600   1.293E+01
   15.700   1.232E+01
   15.800   1.170E+01
   15.900   1.108E+01
   16.000   1.049E+01
   16.100   9.942E+00
   16.200   9.439E+00
   16.300   8.984E+00
   16.400   8.575E+00
   16.500   8.208E+00
   16.600   7.879E+00
   16.700   7.583E+00
   16.800   7.316E+00
   16.900   7.074E+00
   17.000   6.854E+00
   17.100   6.652E+00
   17.200   6.466E+00
   17.300   6.293E+00
   17.400   6.130E+00
   17.500   5.972E+00
   17.600   5.819E+00
   17.700   5.666E+00
   17.800   5.515E+00
   17.900   5.363E+00
   18.000   5.213E+00
   18.100   5.064E+00
   18.200   4.917E+00
   18.300   4.775E+00
   18.400   4.637E+00
   18.500   4.505E+00
   18.600   4.379E+00
   18.700   4.260E+00
   18.800   4.145E+00
   18.900   4.035E+00
   19.000   3.928E+00
   19.100   3.822E+00
   19.200   3.716E+00
   19.300   3.609E+00
   19.400   3.500E+00
   19.500   3.390E+00
   19.600   3.278E+00
   19.700   3.165E+00
   19.800   3.052E+00
   19.900   2.938E+00
   20.000   2.824E+00
   20.100   2.712E+00
   20.200   2.601E+00
   20.300   2.492E+00
   20.400   2.386E+00
   20.500   2.283E+00
   20.600   2.183E+00
   20.700   2.088E+00
   20.800   1.998E+00
   20.900   1.913E+00
   21.000   1.834E+00
   21.100   1.760E+00
   21.200   1.691E+00
   21.300   1.627E+00
   21.400   1.567E+00
   21.500   1.510E+00
   21.600   1.456E+00
   21.700   1.405E+00
   21.800   1.356E+00
   21.900   1.308E+00
   22.000   1.262E+00
   22.100   1.218E+00
   22.200   1.175E+00
   22.300   1.133E+00
   22.400   1.094E+00
   22.500   1.056E+00
   22.600   1.019E+00
   22.700   9.851E-01
   22.800   9.529E-01
   22.900   9.227E-01
   23.000   8.944E-01
   23.100   8.679E-01
   23.200   8.430E-01
   23.300   8.196E-01
   23.400   7.977E-01
   23.500   7.770E-01
   23.600   7.574E-01
   23.700   7.389E-01
   23.800   7.213E-01
   23.900   7.046E-01
   24.000   6.887E-01
   24.100   6.736E-01
   24.200   6.591E-01
   24.300   6.453E-01
   24.400   6.320E-01
   24.500   6.193E-01
   24.600   6.071E-01
   24.700   5.954E-01
   24.800   5.841E-01
   24.900   5.732E-01
   25.000   5.627E-01
   25.100   5.526E-01
   25.200   5.428E-01
   25.300   5.334E-01
   25.400   5.242E-01
   25.500   5.153E-01
   25.600   5.068E-01
   25.700   4.984E-01
   25.800   4.904E-01
   25.900   4.826E-01
   26.000   4.750E-01
   26.100   4.676E-01
   26.200   4.604E-01
   26.300   4.534E-01
   26.400   4.466E-01
   26.500   4.400E-01
   26.600   4.336E-01
   26.700   4.273E-01
   26.800   4.212E-01
   26.900   4.153E-01
   27.000   4.095E-01
   27.100   4.038E-01
   27.200   3.983E-01
   27.300   3.929E-01
   27.400   3.876E-01
   27.500   3.825E-01
   27.600   3.774E-01
   27.700   3.725E-01
   27.800   3.677E-01
   27.900   3.631E-01
   28.000   3.585E-01
   28.100   3.540E-01
   28.200   3.496E-01
   28.300   3.453E-01
   28.400   3.411E-01
   28.500   3.370E-01
   28.600   3.329E-01
   28.700   3.290E-01
   28.800   3.251E-01
   28.900   3.213E-01
   29.000   3.176E-01
   29.100   3.139E-01
   29.200   3.104E-01
   29.300   3.069E-01
   29.400   3.034E-01
   29.500   3.000E-01
   29.600   2.967E-01
   29.700   2.935E-01
   29.800   2.903E-01
   29.900   2.872E-01
   30.000   2.841E-01
 
 Z=  58 A= 151  D1M-QRPA-Inter
 E[MeV]  fQRPA[mb/MeV]
    0.100   9.074E-03
    0.200   1.866E-02
    0.300   2.675E-02
    0.400   3.331E-02
    0.500   3.860E-02
    0.600   4.294E-02
    0.700   4.664E-02
    0.800   4.993E-02
    0.900   5.300E-02
    1.000   5.598E-02
    1.100   5.893E-02
    1.200   6.190E-02
    1.300   6.490E-02
    1.400   6.795E-02
    1.500   7.106E-02
    1.600   7.425E-02
    1.700   7.758E-02
    1.800   8.111E-02
    1.900   8.488E-02
    2.000   8.895E-02
    2.100   9.336E-02
    2.200   9.816E-02
    2.300   1.034E-01
    2.400   1.091E-01
    2.500   1.152E-01
    2.600   1.219E-01
    2.700   1.292E-01
    2.800   1.371E-01
    2.900   1.457E-01
    3.000   1.551E-01
    3.100   1.653E-01
    3.200   1.764E-01
    3.300   1.886E-01
    3.400   2.018E-01
    3.500   2.162E-01
    3.600   2.317E-01
    3.700   2.484E-01
    3.800   2.662E-01
    3.900   2.851E-01
    4.000   3.050E-01
    4.100   3.258E-01
    4.200   3.475E-01
    4.300   3.700E-01
    4.400   3.932E-01
    4.500   4.170E-01
    4.600   4.413E-01
    4.700   4.660E-01
    4.800   4.910E-01
    4.900   5.163E-01
    5.000   5.419E-01
    5.100   5.679E-01
    5.200   5.943E-01
    5.300   6.211E-01
    5.400   6.487E-01
    5.500   6.771E-01
    5.600   7.066E-01
    5.700   7.375E-01
    5.800   7.702E-01
    5.900   8.047E-01
    6.000   8.413E-01
    6.100   8.799E-01
    6.200   9.206E-01
    6.300   9.635E-01
    6.400   1.009E+00
    6.500   1.056E+00
    6.600   1.106E+00
    6.700   1.158E+00
    6.800   1.213E+00
    6.900   1.270E+00
    7.000   1.330E+00
    7.100   1.393E+00
    7.200   1.460E+00
    7.300   1.530E+00
    7.400   1.603E+00
    7.500   1.681E+00
    7.600   1.764E+00
    7.700   1.851E+00
    7.800   1.943E+00
    7.900   2.040E+00
    8.000   2.143E+00
    8.100   2.252E+00
    8.200   2.368E+00
    8.300   2.492E+00
    8.400   2.626E+00
    8.500   2.769E+00
    8.600   2.925E+00
    8.700   3.093E+00
    8.800   3.278E+00
    8.900   3.480E+00
    9.000   3.701E+00
    9.100   3.945E+00
    9.200   4.214E+00
    9.300   4.510E+00
    9.400   4.838E+00
    9.500   5.201E+00
    9.600   5.602E+00
    9.700   6.047E+00
    9.800   6.540E+00
    9.900   7.084E+00
   10.000   7.685E+00
   10.100   8.347E+00
   10.200   9.072E+00
   10.300   9.861E+00
   10.400   1.071E+01
   10.500   1.161E+01
   10.600   1.255E+01
   10.700   1.351E+01
   10.800   1.444E+01
   10.900   1.531E+01
   11.000   1.608E+01
   11.100   1.671E+01
   11.200   1.716E+01
   11.300   1.743E+01
   11.400   1.751E+01
   11.500   1.743E+01
   11.600   1.722E+01
   11.700   1.691E+01
   11.800   1.655E+01
   11.900   1.617E+01
   12.000   1.580E+01
   12.100   1.546E+01
   12.200   1.518E+01
   12.300   1.495E+01
   12.400   1.479E+01
   12.500   1.470E+01
   12.600   1.468E+01
   12.700   1.471E+01
   12.800   1.479E+01
   12.900   1.493E+01
   13.000   1.509E+01
   13.100   1.528E+01
   13.200   1.548E+01
   13.300   1.568E+01
   13.400   1.587E+01
   13.500   1.603E+01
   13.600   1.616E+01
   13.700   1.624E+01
   13.800   1.628E+01
   13.900   1.627E+01
   14.000   1.622E+01
   14.100   1.615E+01
   14.200   1.607E+01
   14.300   1.598E+01
   14.400   1.590E+01
   14.500   1.582E+01
   14.600   1.575E+01
   14.700   1.567E+01
   14.800   1.556E+01
   14.900   1.542E+01
   15.000   1.522E+01
   15.100   1.497E+01
   15.200   1.466E+01
   15.300   1.429E+01
   15.400   1.387E+01
   15.500   1.342E+01
   15.600   1.294E+01
   15.700   1.245E+01
   15.800   1.197E+01
   15.900   1.149E+01
   16.000   1.103E+01
   16.100   1.059E+01
   16.200   1.018E+01
   16.300   9.794E+00
   16.400   9.430E+00
   16.500   9.087E+00
   16.600   8.762E+00
   16.700   8.451E+00
   16.800   8.152E+00
   16.900   7.860E+00
   17.000   7.573E+00
   17.100   7.289E+00
   17.200   7.006E+00
   17.300   6.725E+00
   17.400   6.446E+00
   17.500   6.169E+00
   17.600   5.898E+00
   17.700   5.633E+00
   17.800   5.376E+00
   17.900   5.130E+00
   18.000   4.895E+00
   18.100   4.672E+00
   18.200   4.462E+00
   18.300   4.265E+00
   18.400   4.081E+00
   18.500   3.910E+00
   18.600   3.750E+00
   18.700   3.602E+00
   18.800   3.463E+00
   18.900   3.334E+00
   19.000   3.212E+00
   19.100   3.096E+00
   19.200   2.985E+00
   19.300   2.879E+00
   19.400   2.777E+00
   19.500   2.678E+00
   19.600   2.582E+00
   19.700   2.490E+00
   19.800   2.400E+00
   19.900   2.312E+00
   20.000   2.228E+00
   20.100   2.146E+00
   20.200   2.067E+00
   20.300   1.991E+00
   20.400   1.917E+00
   20.500   1.847E+00
   20.600   1.779E+00
   20.700   1.714E+00
   20.800   1.653E+00
   20.900   1.595E+00
   21.000   1.540E+00
   21.100   1.488E+00
   21.200   1.440E+00
   21.300   1.394E+00
   21.400   1.350E+00
   21.500   1.309E+00
   21.600   1.270E+00
   21.700   1.232E+00
   21.800   1.196E+00
   21.900   1.161E+00
   22.000   1.128E+00
   22.100   1.095E+00
   22.200   1.064E+00
   22.300   1.034E+00
   22.400   1.004E+00
   22.500   9.762E-01
   22.600   9.494E-01
   22.700   9.237E-01
   22.800   8.993E-01
   22.900   8.762E-01
   23.000   8.541E-01
   23.100   8.332E-01
   23.200   8.134E-01
   23.300   7.944E-01
   23.400   7.764E-01
   23.500   7.592E-01
   23.600   7.428E-01
   23.700   7.271E-01
   23.800   7.121E-01
   23.900   6.976E-01
   24.000   6.838E-01
   24.100   6.704E-01
   24.200   6.576E-01
   24.300   6.453E-01
   24.400   6.333E-01
   24.500   6.218E-01
   24.600   6.107E-01
   24.700   6.000E-01
   24.800   5.896E-01
   24.900   5.795E-01
   25.000   5.697E-01
   25.100   5.603E-01
   25.200   5.511E-01
   25.300   5.422E-01
   25.400   5.335E-01
   25.500   5.251E-01
   25.600   5.169E-01
   25.700   5.090E-01
   25.800   5.013E-01
   25.900   4.937E-01
   26.000   4.864E-01
   26.100   4.793E-01
   26.200   4.723E-01
   26.300   4.655E-01
   26.400   4.589E-01
   26.500   4.525E-01
   26.600   4.462E-01
   26.700   4.400E-01
   26.800   4.340E-01
   26.900   4.282E-01
   27.000   4.225E-01
   27.100   4.169E-01
   27.200   4.114E-01
   27.300   4.061E-01
   27.400   4.008E-01
   27.500   3.957E-01
   27.600   3.907E-01
   27.700   3.858E-01
   27.800   3.810E-01
   27.900   3.764E-01
   28.000   3.718E-01
   28.100   3.673E-01
   28.200   3.629E-01
   28.300   3.585E-01
   28.400   3.543E-01
   28.500   3.502E-01
   28.600   3.461E-01
   28.700   3.421E-01
   28.800   3.382E-01
   28.900   3.344E-01
   29.000   3.306E-01
   29.100   3.269E-01
   29.200   3.233E-01
   29.300   3.197E-01
   29.400   3.162E-01
   29.500   3.128E-01
   29.600   3.094E-01
   29.700   3.061E-01
   29.800   3.029E-01
   29.900   2.997E-01
   30.000   2.966E-01
 
 Z=  58 A= 152  D1M-QRPA
   E[MeV]   fQRPA[mb/MeV]
    0.100   1.814E-03
    0.200   6.497E-03
    0.300   1.250E-02
    0.400   1.860E-02
    0.500   2.423E-02
    0.600   2.926E-02
    0.700   3.377E-02
    0.800   3.788E-02
    0.900   4.173E-02
    1.000   4.542E-02
    1.100   4.903E-02
    1.200   5.260E-02
    1.300   5.618E-02
    1.400   5.978E-02
    1.500   6.340E-02
    1.600   6.708E-02
    1.700   7.083E-02
    1.800   7.469E-02
    1.900   7.870E-02
    2.000   8.289E-02
    2.100   8.727E-02
    2.200   9.186E-02
    2.300   9.666E-02
    2.400   1.017E-01
    2.500   1.069E-01
    2.600   1.125E-01
    2.700   1.183E-01
    2.800   1.246E-01
    2.900   1.313E-01
    3.000   1.385E-01
    3.100   1.463E-01
    3.200   1.549E-01
    3.300   1.642E-01
    3.400   1.745E-01
    3.500   1.856E-01
    3.600   1.978E-01
    3.700   2.112E-01
    3.800   2.258E-01
    3.900   2.416E-01
    4.000   2.589E-01
    4.100   2.776E-01
    4.200   2.978E-01
    4.300   3.196E-01
    4.400   3.429E-01
    4.500   3.676E-01
    4.600   3.936E-01
    4.700   4.208E-01
    4.800   4.488E-01
    4.900   4.774E-01
    5.000   5.060E-01
    5.100   5.344E-01
    5.200   5.623E-01
    5.300   5.895E-01
    5.400   6.160E-01
    5.500   6.422E-01
    5.600   6.683E-01
    5.700   6.950E-01
    5.800   7.226E-01
    5.900   7.518E-01
    6.000   7.830E-01
    6.100   8.164E-01
    6.200   8.525E-01
    6.300   8.913E-01
    6.400   9.332E-01
    6.500   9.781E-01
    6.600   1.026E+00
    6.700   1.077E+00
    6.800   1.132E+00
    6.900   1.188E+00
    7.000   1.248E+00
    7.100   1.310E+00
    7.200   1.374E+00
    7.300   1.441E+00
    7.400   1.510E+00
    7.500   1.582E+00
    7.600   1.658E+00
    7.700   1.737E+00
    7.800   1.819E+00
    7.900   1.906E+00
    8.000   1.998E+00
    8.100   2.095E+00
    8.200   2.198E+00
    8.300   2.308E+00
    8.400   2.424E+00
    8.500   2.549E+00
    8.600   2.682E+00
    8.700   2.825E+00
    8.800   2.979E+00
    8.900   3.146E+00
    9.000   3.328E+00
    9.100   3.527E+00
    9.200   3.744E+00
    9.300   3.983E+00
    9.400   4.247E+00
    9.500   4.539E+00
    9.600   4.862E+00
    9.700   5.222E+00
    9.800   5.621E+00
    9.900   6.064E+00
   10.000   6.554E+00
   10.100   7.095E+00
   10.200   7.689E+00
   10.300   8.338E+00
   10.400   9.045E+00
   10.500   9.809E+00
   10.600   1.063E+01
   10.700   1.151E+01
   10.800   1.243E+01
   10.900   1.338E+01
   11.000   1.433E+01
   11.100   1.526E+01
   11.200   1.612E+01
   11.300   1.686E+01
   11.400   1.745E+01
   11.500   1.785E+01
   11.600   1.807E+01
   11.700   1.809E+01
   11.800   1.797E+01
   11.900   1.772E+01
   12.000   1.741E+01
   12.100   1.706E+01
   12.200   1.672E+01
   12.300   1.642E+01
   12.400   1.617E+01
   12.500   1.599E+01
   12.600   1.589E+01
   12.700   1.586E+01
   12.800   1.590E+01
   12.900   1.600E+01
   13.000   1.616E+01
   13.100   1.635E+01
   13.200   1.656E+01
   13.300   1.679E+01
   13.400   1.700E+01
   13.500   1.720E+01
   13.600   1.736E+01
   13.700   1.747E+01
   13.800   1.753E+01
   13.900   1.753E+01
   14.000   1.748E+01
   14.100   1.739E+01
   14.200   1.726E+01
   14.300   1.712E+01
   14.400   1.696E+01
   14.500   1.678E+01
   14.600   1.657E+01
   14.700   1.633E+01
   14.800   1.604E+01
   14.900   1.571E+01
   15.000   1.533E+01
   15.100   1.492E+01
   15.200   1.449E+01
   15.300   1.406E+01
   15.400   1.364E+01
   15.500   1.323E+01
   15.600   1.284E+01
   15.700   1.248E+01
   15.800   1.213E+01
   15.900   1.181E+01
   16.000   1.149E+01
   16.100   1.119E+01
   16.200   1.088E+01
   16.300   1.058E+01
   16.400   1.028E+01
   16.500   9.971E+00
   16.600   9.657E+00
   16.700   9.336E+00
   16.800   9.002E+00
   16.900   8.656E+00
   17.000   8.293E+00
   17.100   7.916E+00
   17.200   7.524E+00
   17.300   7.123E+00
   17.400   6.718E+00
   17.500   6.316E+00
   17.600   5.925E+00
   17.700   5.549E+00
   17.800   5.194E+00
   17.900   4.862E+00
   18.000   4.555E+00
   18.100   4.272E+00
   18.200   4.013E+00
   18.300   3.777E+00
   18.400   3.561E+00
   18.500   3.363E+00
   18.600   3.183E+00
   18.700   3.019E+00
   18.800   2.868E+00
   18.900   2.730E+00
   19.000   2.603E+00
   19.100   2.485E+00
   19.200   2.377E+00
   19.300   2.277E+00
   19.400   2.183E+00
   19.500   2.097E+00
   19.600   2.016E+00
   19.700   1.941E+00
   19.800   1.870E+00
   19.900   1.804E+00
   20.000   1.742E+00
   20.100   1.683E+00
   20.200   1.628E+00
   20.300   1.576E+00
   20.400   1.527E+00
   20.500   1.481E+00
   20.600   1.437E+00
   20.700   1.395E+00
   20.800   1.355E+00
   20.900   1.317E+00
   21.000   1.281E+00
   21.100   1.247E+00
   21.200   1.214E+00
   21.300   1.183E+00
   21.400   1.153E+00
   21.500   1.125E+00
   21.600   1.097E+00
   21.700   1.071E+00
   21.800   1.046E+00
   21.900   1.022E+00
   22.000   9.985E-01
   22.100   9.762E-01
   22.200   9.547E-01
   22.300   9.340E-01
   22.400   9.141E-01
   22.500   8.949E-01
   22.600   8.764E-01
   22.700   8.585E-01
   22.800   8.413E-01
   22.900   8.246E-01
   23.000   8.085E-01
   23.100   7.929E-01
   23.200   7.778E-01
   23.300   7.632E-01
   23.400   7.491E-01
   23.500   7.354E-01
   23.600   7.221E-01
   23.700   7.092E-01
   23.800   6.967E-01
   23.900   6.846E-01
   24.000   6.728E-01
   24.100   6.614E-01
   24.200   6.503E-01
   24.300   6.395E-01
   24.400   6.290E-01
   24.500   6.188E-01
   24.600   6.089E-01
   24.700   5.992E-01
   24.800   5.898E-01
   24.900   5.806E-01
   25.000   5.717E-01
   25.100   5.630E-01
   25.200   5.545E-01
   25.300   5.463E-01
   25.400   5.382E-01
   25.500   5.303E-01
   25.600   5.227E-01
   25.700   5.152E-01
   25.800   5.079E-01
   25.900   5.007E-01
   26.000   4.937E-01
   26.100   4.869E-01
   26.200   4.803E-01
   26.300   4.738E-01
   26.400   4.674E-01
   26.500   4.612E-01
   26.600   4.551E-01
   26.700   4.491E-01
   26.800   4.433E-01
   26.900   4.376E-01
   27.000   4.320E-01
   27.100   4.266E-01
   27.200   4.212E-01
   27.300   4.160E-01
   27.400   4.109E-01
   27.500   4.058E-01
   27.600   4.009E-01
   27.700   3.961E-01
   27.800   3.913E-01
   27.900   3.867E-01
   28.000   3.822E-01
   28.100   3.777E-01
   28.200   3.733E-01
   28.300   3.690E-01
   28.400   3.648E-01
   28.500   3.607E-01
   28.600   3.566E-01
   28.700   3.526E-01
   28.800   3.487E-01
   28.900   3.449E-01
   29.000   3.411E-01
   29.100   3.374E-01
   29.200   3.338E-01
   29.300   3.302E-01
   29.400   3.267E-01
   29.500   3.232E-01
   29.600   3.199E-01
   29.700   3.165E-01
   29.800   3.132E-01
   29.900   3.100E-01
   30.000   3.069E-01
 
 Z=  58 A= 153  D1M-QRPA-Inter
 E[MeV]  fQRPA[mb/MeV]
    0.100   3.596E-03
    0.200   1.160E-02
    0.300   2.021E-02
    0.400   2.784E-02
    0.500   3.427E-02
    0.600   3.973E-02
    0.700   4.451E-02
    0.800   4.884E-02
    0.900   5.291E-02
    1.000   5.685E-02
    1.100   6.076E-02
    1.200   6.469E-02
    1.300   6.870E-02
    1.400   7.281E-02
    1.500   7.705E-02
    1.600   8.144E-02
    1.700   8.601E-02
    1.800   9.081E-02
    1.900   9.586E-02
    2.000   1.012E-01
    2.100   1.069E-01
    2.200   1.129E-01
    2.300   1.192E-01
    2.400   1.259E-01
    2.500   1.330E-01
    2.600   1.406E-01
    2.700   1.487E-01
    2.800   1.573E-01
    2.900   1.665E-01
    3.000   1.765E-01
    3.100   1.872E-01
    3.200   1.988E-01
    3.300   2.114E-01
    3.400   2.250E-01
    3.500   2.397E-01
    3.600   2.556E-01
    3.700   2.728E-01
    3.800   2.913E-01
    3.900   3.112E-01
    4.000   3.326E-01
    4.100   3.555E-01
    4.200   3.800E-01
    4.300   4.059E-01
    4.400   4.334E-01
    4.500   4.623E-01
    4.600   4.925E-01
    4.700   5.238E-01
    4.800   5.561E-01
    4.900   5.890E-01
    5.000   6.224E-01
    5.100   6.559E-01
    5.200   6.893E-01
    5.300   7.227E-01
    5.400   7.560E-01
    5.500   7.896E-01
    5.600   8.236E-01
    5.700   8.584E-01
    5.800   8.946E-01
    5.900   9.326E-01
    6.000   9.725E-01
    6.100   1.015E+00
    6.200   1.060E+00
    6.300   1.108E+00
    6.400   1.158E+00
    6.500   1.212E+00
    6.600   1.269E+00
    6.700   1.329E+00
    6.800   1.392E+00
    6.900   1.458E+00
    7.000   1.527E+00
    7.100   1.599E+00
    7.200   1.673E+00
    7.300   1.751E+00
    7.400   1.831E+00
    7.500   1.915E+00
    7.600   2.003E+00
    7.700   2.095E+00
    7.800   2.191E+00
    7.900   2.291E+00
    8.000   2.398E+00
    8.100   2.509E+00
    8.200   2.628E+00
    8.300   2.753E+00
    8.400   2.886E+00
    8.500   3.027E+00
    8.600   3.178E+00
    8.700   3.340E+00
    8.800   3.513E+00
    8.900   3.700E+00
    9.000   3.902E+00
    9.100   4.121E+00
    9.200   4.359E+00
    9.300   4.618E+00
    9.400   4.902E+00
    9.500   5.212E+00
    9.600   5.552E+00
    9.700   5.925E+00
    9.800   6.333E+00
    9.900   6.780E+00
   10.000   7.267E+00
   10.100   7.797E+00
   10.200   8.370E+00
   10.300   8.989E+00
   10.400   9.652E+00
   10.500   1.036E+01
   10.600   1.111E+01
   10.700   1.189E+01
   10.800   1.271E+01
   10.900   1.354E+01
   11.000   1.437E+01
   11.100   1.517E+01
   11.200   1.592E+01
   11.300   1.659E+01
   11.400   1.715E+01
   11.500   1.758E+01
   11.600   1.788E+01
   11.700   1.803E+01
   11.800   1.807E+01
   11.900   1.800E+01
   12.000   1.785E+01
   12.100   1.765E+01
   12.200   1.744E+01
   12.300   1.722E+01
   12.400   1.703E+01
   12.500   1.687E+01
   12.600   1.675E+01
   12.700   1.668E+01
   12.800   1.666E+01
   12.900   1.668E+01
   13.000   1.674E+01
   13.100   1.684E+01
   13.200   1.696E+01
   13.300   1.710E+01
   13.400   1.724E+01
   13.500   1.738E+01
   13.600   1.750E+01
   13.700   1.760E+01
   13.800   1.767E+01
   13.900   1.771E+01
   14.000   1.771E+01
   14.100   1.767E+01
   14.200   1.761E+01
   14.300   1.752E+01
   14.400   1.741E+01
   14.500   1.727E+01
   14.600   1.711E+01
   14.700   1.691E+01
   14.800   1.669E+01
   14.900   1.643E+01
   15.000   1.614E+01
   15.100   1.583E+01
   15.200   1.550E+01
   15.300   1.517E+01
   15.400   1.485E+01
   15.500   1.453E+01
   15.600   1.422E+01
   15.700   1.392E+01
   15.800   1.364E+01
   15.900   1.336E+01
   16.000   1.309E+01
   16.100   1.282E+01
   16.200   1.255E+01
   16.300   1.228E+01
   16.400   1.200E+01
   16.500   1.172E+01
   16.600   1.144E+01
   16.700   1.114E+01
   16.800   1.084E+01
   16.900   1.052E+01
   17.000   1.019E+01
   17.100   9.854E+00
   17.200   9.502E+00
   17.300   9.141E+00
   17.400   8.775E+00
   17.500   8.409E+00
   17.600   8.046E+00
   17.700   7.690E+00
   17.800   7.346E+00
   17.900   7.015E+00
   18.000   6.700E+00
   18.100   6.400E+00
   18.200   6.116E+00
   18.300   5.847E+00
   18.400   5.593E+00
   18.500   5.353E+00
   18.600   5.126E+00
   18.700   4.912E+00
   18.800   4.708E+00
   18.900   4.516E+00
   19.000   4.333E+00
   19.100   4.160E+00
   19.200   3.995E+00
   19.300   3.839E+00
   19.400   3.690E+00
   19.500   3.549E+00
   19.600   3.415E+00
   19.700   3.287E+00
   19.800   3.166E+00
   19.900   3.050E+00
   20.000   2.940E+00
   20.100   2.836E+00
   20.200   2.736E+00
   20.300   2.641E+00
   20.400   2.551E+00
   20.500   2.465E+00
   20.600   2.383E+00
   20.700   2.305E+00
   20.800   2.230E+00
   20.900   2.159E+00
   21.000   2.091E+00
   21.100   2.026E+00
   21.200   1.963E+00
   21.300   1.904E+00
   21.400   1.847E+00
   21.500   1.793E+00
   21.600   1.741E+00
   21.700   1.692E+00
   21.800   1.644E+00
   21.900   1.599E+00
   22.000   1.556E+00
   22.100   1.515E+00
   22.200   1.476E+00
   22.300   1.439E+00
   22.400   1.403E+00
   22.500   1.369E+00
   22.600   1.336E+00
   22.700   1.304E+00
   22.800   1.274E+00
   22.900   1.245E+00
   23.000   1.218E+00
   23.100   1.191E+00
   23.200   1.165E+00
   23.300   1.141E+00
   23.400   1.117E+00
   23.500   1.094E+00
   23.600   1.072E+00
   23.700   1.051E+00
   23.800   1.030E+00
   23.900   1.010E+00
   24.000   9.911E-01
   24.100   9.726E-01
   24.200   9.546E-01
   24.300   9.373E-01
   24.400   9.204E-01
   24.500   9.041E-01
   24.600   8.883E-01
   24.700   8.730E-01
   24.800   8.581E-01
   24.900   8.437E-01
   25.000   8.297E-01
   25.100   8.160E-01
   25.200   8.028E-01
   25.300   7.899E-01
   25.400   7.774E-01
   25.500   7.652E-01
   25.600   7.533E-01
   25.700   7.418E-01
   25.800   7.306E-01
   25.900   7.196E-01
   26.000   7.089E-01
   26.100   6.985E-01
   26.200   6.884E-01
   26.300   6.785E-01
   26.400   6.688E-01
   26.500   6.594E-01
   26.600   6.502E-01
   26.700   6.412E-01
   26.800   6.324E-01
   26.900   6.238E-01
   27.000   6.154E-01
   27.100   6.072E-01
   27.200   5.992E-01
   27.300   5.914E-01
   27.400   5.837E-01
   27.500   5.762E-01
   27.600   5.689E-01
   27.700   5.617E-01
   27.800   5.547E-01
   27.900   5.478E-01
   28.000   5.411E-01
   28.100   5.345E-01
   28.200   5.280E-01
   28.300   5.217E-01
   28.400   5.154E-01
   28.500   5.094E-01
   28.600   5.034E-01
   28.700   4.975E-01
   28.800   4.918E-01
   28.900   4.862E-01
   29.000   4.806E-01
   29.100   4.752E-01
   29.200   4.699E-01
   29.300   4.647E-01
   29.400   4.595E-01
   29.500   4.545E-01
   29.600   4.496E-01
   29.700   4.447E-01
   29.800   4.399E-01
   29.900   4.353E-01
   30.000   4.307E-01
 
 Z=  58 A= 154  D1M-QRPA
   E[MeV]   fQRPA[mb/MeV]
    0.100   6.791E-03
    0.200   1.974E-02
    0.300   3.114E-02
    0.400   3.971E-02
    0.500   4.620E-02
    0.600   5.142E-02
    0.700   5.590E-02
    0.800   5.999E-02
    0.900   6.391E-02
    1.000   6.780E-02
    1.100   7.174E-02
    1.200   7.581E-02
    1.300   8.005E-02
    1.400   8.451E-02
    1.500   8.922E-02
    1.600   9.421E-02
    1.700   9.953E-02
    1.800   1.052E-01
    1.900   1.113E-01
    2.000   1.177E-01
    2.100   1.247E-01
    2.200   1.321E-01
    2.300   1.401E-01
    2.400   1.486E-01
    2.500   1.577E-01
    2.600   1.675E-01
    2.700   1.780E-01
    2.800   1.892E-01
    2.900   2.013E-01
    3.000   2.142E-01
    3.100   2.282E-01
    3.200   2.431E-01
    3.300   2.592E-01
    3.400   2.765E-01
    3.500   2.949E-01
    3.600   3.147E-01
    3.700   3.358E-01
    3.800   3.582E-01
    3.900   3.820E-01
    4.000   4.072E-01
    4.100   4.339E-01
    4.200   4.619E-01
    4.300   4.913E-01
    4.400   5.220E-01
    4.500   5.540E-01
    4.600   5.872E-01
    4.700   6.214E-01
    4.800   6.566E-01
    4.900   6.926E-01
    5.000   7.294E-01
    5.100   7.670E-01
    5.200   8.052E-01
    5.300   8.442E-01
    5.400   8.841E-01
    5.500   9.250E-01
    5.600   9.670E-01
    5.700   1.010E+00
    5.800   1.055E+00
    5.900   1.102E+00
    6.000   1.151E+00
    6.100   1.202E+00
    6.200   1.255E+00
    6.300   1.311E+00
    6.400   1.370E+00
    6.500   1.431E+00
    6.600   1.495E+00
    6.700   1.562E+00
    6.800   1.632E+00
    6.900   1.705E+00
    7.000   1.781E+00
    7.100   1.860E+00
    7.200   1.942E+00
    7.300   2.027E+00
    7.400   2.116E+00
    7.500   2.209E+00
    7.600   2.306E+00
    7.700   2.407E+00
    7.800   2.513E+00
    7.900   2.625E+00
    8.000   2.741E+00
    8.100   2.864E+00
    8.200   2.993E+00
    8.300   3.129E+00
    8.400   3.274E+00
    8.500   3.426E+00
    8.600   3.589E+00
    8.700   3.762E+00
    8.800   3.947E+00
    8.900   4.145E+00
    9.000   4.359E+00
    9.100   4.588E+00
    9.200   4.836E+00
    9.300   5.103E+00
    9.400   5.391E+00
    9.500   5.704E+00
    9.600   6.041E+00
    9.700   6.405E+00
    9.800   6.799E+00
    9.900   7.222E+00
   10.000   7.677E+00
   10.100   8.163E+00
   10.200   8.682E+00
   10.300   9.233E+00
   10.400   9.814E+00
   10.500   1.042E+01
   10.600   1.106E+01
   10.700   1.171E+01
   10.800   1.238E+01
   10.900   1.305E+01
   11.000   1.372E+01
   11.100   1.437E+01
   11.200   1.498E+01
   11.300   1.555E+01
   11.400   1.606E+01
   11.500   1.650E+01
   11.600   1.686E+01
   11.700   1.713E+01
   11.800   1.731E+01
   11.900   1.741E+01
   12.000   1.744E+01
   12.100   1.741E+01
   12.200   1.733E+01
   12.300   1.722E+01
   12.400   1.709E+01
   12.500   1.696E+01
   12.600   1.683E+01
   12.700   1.672E+01
   12.800   1.663E+01
   12.900   1.657E+01
   13.000   1.654E+01
   13.100   1.653E+01
   13.200   1.655E+01
   13.300   1.660E+01
   13.400   1.666E+01
   13.500   1.673E+01
   13.600   1.682E+01
   13.700   1.690E+01
   13.800   1.698E+01
   13.900   1.704E+01
   14.000   1.709E+01
   14.100   1.712E+01
   14.200   1.712E+01
   14.300   1.709E+01
   14.400   1.703E+01
   14.500   1.694E+01
   14.600   1.683E+01
   14.700   1.669E+01
   14.800   1.654E+01
   14.900   1.637E+01
   15.000   1.619E+01
   15.100   1.600E+01
   15.200   1.580E+01
   15.300   1.561E+01
   15.400   1.541E+01
   15.500   1.521E+01
   15.600   1.501E+01
   15.700   1.481E+01
   15.800   1.461E+01
   15.900   1.441E+01
   16.000   1.420E+01
   16.100   1.400E+01
   16.200   1.379E+01
   16.300   1.358E+01
   16.400   1.336E+01
   16.500   1.314E+01
   16.600   1.291E+01
   16.700   1.267E+01
   16.800   1.243E+01
   16.900   1.219E+01
   17.000   1.194E+01
   17.100   1.169E+01
   17.200   1.143E+01
   17.300   1.118E+01
   17.400   1.092E+01
   17.500   1.067E+01
   17.600   1.041E+01
   17.700   1.015E+01
   17.800   9.900E+00
   17.900   9.645E+00
   18.000   9.390E+00
   18.100   9.135E+00
   18.200   8.881E+00
   18.300   8.626E+00
   18.400   8.372E+00
   18.500   8.119E+00
   18.600   7.866E+00
   18.700   7.614E+00
   18.800   7.365E+00
   18.900   7.117E+00
   19.000   6.873E+00
   19.100   6.633E+00
   19.200   6.398E+00
   19.300   6.167E+00
   19.400   5.942E+00
   19.500   5.723E+00
   19.600   5.511E+00
   19.700   5.305E+00
   19.800   5.106E+00
   19.900   4.914E+00
   20.000   4.729E+00
   20.100   4.551E+00
   20.200   4.381E+00
   20.300   4.217E+00
   20.400   4.061E+00
   20.500   3.911E+00
   20.600   3.767E+00
   20.700   3.629E+00
   20.800   3.497E+00
   20.900   3.371E+00
   21.000   3.250E+00
   21.100   3.134E+00
   21.200   3.024E+00
   21.300   2.919E+00
   21.400   2.818E+00
   21.500   2.723E+00
   21.600   2.632E+00
   21.700   2.545E+00
   21.800   2.463E+00
   21.900   2.386E+00
   22.000   2.312E+00
   22.100   2.241E+00
   22.200   2.175E+00
   22.300   2.112E+00
   22.400   2.052E+00
   22.500   1.995E+00
   22.600   1.940E+00
   22.700   1.889E+00
   22.800   1.839E+00
   22.900   1.792E+00
   23.000   1.748E+00
   23.100   1.705E+00
   23.200   1.664E+00
   23.300   1.625E+00
   23.400   1.587E+00
   23.500   1.551E+00
   23.600   1.516E+00
   23.700   1.483E+00
   23.800   1.451E+00
   23.900   1.421E+00
   24.000   1.391E+00
   24.100   1.363E+00
   24.200   1.335E+00
   24.300   1.309E+00
   24.400   1.283E+00
   24.500   1.259E+00
   24.600   1.235E+00
   24.700   1.212E+00
   24.800   1.190E+00
   24.900   1.168E+00
   25.000   1.147E+00
   25.100   1.127E+00
   25.200   1.107E+00
   25.300   1.088E+00
   25.400   1.070E+00
   25.500   1.052E+00
   25.600   1.035E+00
   25.700   1.018E+00
   25.800   1.001E+00
   25.900   9.854E-01
   26.000   9.699E-01
   26.100   9.548E-01
   26.200   9.401E-01
   26.300   9.258E-01
   26.400   9.119E-01
   26.500   8.983E-01
   26.600   8.851E-01
   26.700   8.722E-01
   26.800   8.596E-01
   26.900   8.473E-01
   27.000   8.353E-01
   27.100   8.237E-01
   27.200   8.123E-01
   27.300   8.011E-01
   27.400   7.902E-01
   27.500   7.796E-01
   27.600   7.692E-01
   27.700   7.591E-01
   27.800   7.491E-01
   27.900   7.394E-01
   28.000   7.299E-01
   28.100   7.206E-01
   28.200   7.115E-01
   28.300   7.026E-01
   28.400   6.939E-01
   28.500   6.854E-01
   28.600   6.770E-01
   28.700   6.689E-01
   28.800   6.608E-01
   28.900   6.530E-01
   29.000   6.453E-01
   29.100   6.377E-01
   29.200   6.303E-01
   29.300   6.231E-01
   29.400   6.159E-01
   29.500   6.089E-01
   29.600   6.021E-01
   29.700   5.954E-01
   29.800   5.888E-01
   29.900   5.823E-01
   30.000   5.759E-01
 
