 Z=  59 A= 141  D1M-QRPA-Inter
 E[MeV]  fQRPA[mb/MeV]
    0.100   7.592E-05
    0.200   3.038E-04
    0.300   6.838E-04
    0.400   1.216E-03
    0.500   1.902E-03
    0.600   2.742E-03
    0.700   3.737E-03
    0.800   4.888E-03
    0.900   6.196E-03
    1.000   7.663E-03
    1.100   9.290E-03
    1.200   1.108E-02
    1.300   1.304E-02
    1.400   1.516E-02
    1.500   1.745E-02
    1.600   1.991E-02
    1.700   2.255E-02
    1.800   2.536E-02
    1.900   2.836E-02
    2.000   3.154E-02
    2.100   3.491E-02
    2.200   3.847E-02
    2.300   4.223E-02
    2.400   4.620E-02
    2.500   5.037E-02
    2.600   5.475E-02
    2.700   5.935E-02
    2.800   6.417E-02
    2.900   6.922E-02
    3.000   7.451E-02
    3.100   8.004E-02
    3.200   8.582E-02
    3.300   9.186E-02
    3.400   9.817E-02
    3.500   1.048E-01
    3.600   1.116E-01
    3.700   1.188E-01
    3.800   1.263E-01
    3.900   1.340E-01
    4.000   1.421E-01
    4.100   1.506E-01
    4.200   1.594E-01
    4.300   1.686E-01
    4.400   1.781E-01
    4.500   1.880E-01
    4.600   1.984E-01
    4.700   2.092E-01
    4.800   2.204E-01
    4.900   2.321E-01
    5.000   2.443E-01
    5.100   2.570E-01
    5.200   2.702E-01
    5.300   2.839E-01
    5.400   2.983E-01
    5.500   3.132E-01
    5.600   3.288E-01
    5.700   3.451E-01
    5.800   3.620E-01
    5.900   3.797E-01
    6.000   3.981E-01
    6.100   4.174E-01
    6.200   4.375E-01
    6.300   4.585E-01
    6.400   4.804E-01
    6.500   5.033E-01
    6.600   5.272E-01
    6.700   5.523E-01
    6.800   5.784E-01
    6.900   6.058E-01
    7.000   6.345E-01
    7.100   6.644E-01
    7.200   6.958E-01
    7.300   7.286E-01
    7.400   7.630E-01
    7.500   7.991E-01
    7.600   8.368E-01
    7.700   8.764E-01
    7.800   9.179E-01
    7.900   9.614E-01
    8.000   1.007E+00
    8.100   1.055E+00
    8.200   1.106E+00
    8.300   1.159E+00
    8.400   1.214E+00
    8.500   1.273E+00
    8.600   1.335E+00
    8.700   1.400E+00
    8.800   1.469E+00
    8.900   1.542E+00
    9.000   1.618E+00
    9.100   1.699E+00
    9.200   1.784E+00
    9.300   1.874E+00
    9.400   1.969E+00
    9.500   2.069E+00
    9.600   2.174E+00
    9.700   2.285E+00
    9.800   2.402E+00
    9.900   2.524E+00
   10.000   2.653E+00
   10.100   2.789E+00
   10.200   2.932E+00
   10.300   3.081E+00
   10.400   3.238E+00
   10.500   3.403E+00
   10.600   3.575E+00
   10.700   3.756E+00
   10.800   3.946E+00
   10.900   4.144E+00
   11.000   4.352E+00
   11.100   4.570E+00
   11.200   4.799E+00
   11.300   5.038E+00
   11.400   5.289E+00
   11.500   5.552E+00
   11.600   5.828E+00
   11.700   6.117E+00
   11.800   6.421E+00
   11.900   6.739E+00
   12.000   7.074E+00
   12.100   7.426E+00
   12.200   7.796E+00
   12.300   8.185E+00
   12.400   8.596E+00
   12.500   9.029E+00
   12.600   9.486E+00
   12.700   9.968E+00
   12.800   1.048E+01
   12.900   1.102E+01
   13.000   1.158E+01
   13.100   1.218E+01
   13.200   1.281E+01
   13.300   1.347E+01
   13.400   1.416E+01
   13.500   1.487E+01
   13.600   1.561E+01
   13.700   1.636E+01
   13.800   1.713E+01
   13.900   1.790E+01
   14.000   1.866E+01
   14.100   1.941E+01
   14.200   2.014E+01
   14.300   2.082E+01
   14.400   2.147E+01
   14.500   2.205E+01
   14.600   2.256E+01
   14.700   2.300E+01
   14.800   2.336E+01
   14.900   2.363E+01
   15.000   2.380E+01
   15.100   2.389E+01
   15.200   2.388E+01
   15.300   2.378E+01
   15.400   2.360E+01
   15.500   2.333E+01
   15.600   2.299E+01
   15.700   2.258E+01
   15.800   2.211E+01
   15.900   2.158E+01
   16.000   2.100E+01
   16.100   2.039E+01
   16.200   1.975E+01
   16.300   1.908E+01
   16.400   1.841E+01
   16.500   1.773E+01
   16.600   1.706E+01
   16.700   1.640E+01
   16.800   1.575E+01
   16.900   1.512E+01
   17.000   1.451E+01
   17.100   1.393E+01
   17.200   1.337E+01
   17.300   1.284E+01
   17.400   1.233E+01
   17.500   1.184E+01
   17.600   1.138E+01
   17.700   1.094E+01
   17.800   1.052E+01
   17.900   1.012E+01
   18.000   9.734E+00
   18.100   9.367E+00
   18.200   9.017E+00
   18.300   8.680E+00
   18.400   8.357E+00
   18.500   8.047E+00
   18.600   7.750E+00
   18.700   7.464E+00
   18.800   7.189E+00
   18.900   6.925E+00
   19.000   6.672E+00
   19.100   6.430E+00
   19.200   6.197E+00
   19.300   5.975E+00
   19.400   5.762E+00
   19.500   5.558E+00
   19.600   5.363E+00
   19.700   5.177E+00
   19.800   4.999E+00
   19.900   4.829E+00
   20.000   4.667E+00
   20.100   4.512E+00
   20.200   4.365E+00
   20.300   4.224E+00
   20.400   4.090E+00
   20.500   3.962E+00
   20.600   3.840E+00
   20.700   3.724E+00
   20.800   3.613E+00
   20.900   3.506E+00
   21.000   3.405E+00
   21.100   3.308E+00
   21.200   3.215E+00
   21.300   3.127E+00
   21.400   3.042E+00
   21.500   2.960E+00
   21.600   2.883E+00
   21.700   2.808E+00
   21.800   2.736E+00
   21.900   2.668E+00
   22.000   2.602E+00
   22.100   2.538E+00
   22.200   2.477E+00
   22.300   2.419E+00
   22.400   2.362E+00
   22.500   2.308E+00
   22.600   2.256E+00
   22.700   2.205E+00
   22.800   2.157E+00
   22.900   2.110E+00
   23.000   2.065E+00
   23.100   2.021E+00
   23.200   1.979E+00
   23.300   1.938E+00
   23.400   1.899E+00
   23.500   1.861E+00
   23.600   1.824E+00
   23.700   1.788E+00
   23.800   1.753E+00
   23.900   1.720E+00
   24.000   1.687E+00
   24.100   1.656E+00
   24.200   1.625E+00
   24.300   1.596E+00
   24.400   1.567E+00
   24.500   1.539E+00
   24.600   1.512E+00
   24.700   1.485E+00
   24.800   1.460E+00
   24.900   1.435E+00
   25.000   1.411E+00
   25.100   1.387E+00
   25.200   1.364E+00
   25.300   1.342E+00
   25.400   1.320E+00
   25.500   1.299E+00
   25.600   1.278E+00
   25.700   1.258E+00
   25.800   1.239E+00
   25.900   1.220E+00
   26.000   1.201E+00
   26.100   1.183E+00
   26.200   1.165E+00
   26.300   1.148E+00
   26.400   1.131E+00
   26.500   1.114E+00
   26.600   1.098E+00
   26.700   1.083E+00
   26.800   1.067E+00
   26.900   1.052E+00
   27.000   1.038E+00
   27.100   1.023E+00
   27.200   1.009E+00
   27.300   9.956E-01
   27.400   9.822E-01
   27.500   9.691E-01
   27.600   9.563E-01
   27.700   9.438E-01
   27.800   9.315E-01
   27.900   9.195E-01
   28.000   9.077E-01
   28.100   8.962E-01
   28.200   8.849E-01
   28.300   8.738E-01
   28.400   8.630E-01
   28.500   8.523E-01
   28.600   8.419E-01
   28.700   8.317E-01
   28.800   8.217E-01
   28.900   8.119E-01
   29.000   8.023E-01
   29.100   7.928E-01
   29.200   7.836E-01
   29.300   7.745E-01
   29.400   7.656E-01
   29.500   7.568E-01
   29.600   7.482E-01
   29.700   7.398E-01
   29.800   7.315E-01
   29.900   7.234E-01
   30.000   7.154E-01
 
 Z=  59 A= 142  D1M-QRPA-Inter
 E[MeV]  fQRPA[mb/MeV]
    0.100   8.156E-05
    0.200   3.264E-04
    0.300   7.347E-04
    0.400   1.307E-03
    0.500   2.044E-03
    0.600   2.946E-03
    0.700   4.016E-03
    0.800   5.253E-03
    0.900   6.659E-03
    1.000   8.237E-03
    1.100   9.987E-03
    1.200   1.191E-02
    1.300   1.402E-02
    1.400   1.630E-02
    1.500   1.876E-02
    1.600   2.142E-02
    1.700   2.426E-02
    1.800   2.729E-02
    1.900   3.052E-02
    2.000   3.395E-02
    2.100   3.758E-02
    2.200   4.143E-02
    2.300   4.549E-02
    2.400   4.977E-02
    2.500   5.427E-02
    2.600   5.901E-02
    2.700   6.398E-02
    2.800   6.920E-02
    2.900   7.467E-02
    3.000   8.039E-02
    3.100   8.639E-02
    3.200   9.266E-02
    3.300   9.921E-02
    3.400   1.061E-01
    3.500   1.132E-01
    3.600   1.207E-01
    3.700   1.285E-01
    3.800   1.366E-01
    3.900   1.451E-01
    4.000   1.539E-01
    4.100   1.631E-01
    4.200   1.728E-01
    4.300   1.828E-01
    4.400   1.932E-01
    4.500   2.041E-01
    4.600   2.155E-01
    4.700   2.273E-01
    4.800   2.396E-01
    4.900   2.525E-01
    5.000   2.659E-01
    5.100   2.798E-01
    5.200   2.944E-01
    5.300   3.096E-01
    5.400   3.254E-01
    5.500   3.420E-01
    5.600   3.592E-01
    5.700   3.772E-01
    5.800   3.961E-01
    5.900   4.157E-01
    6.000   4.362E-01
    6.100   4.576E-01
    6.200   4.800E-01
    6.300   5.034E-01
    6.400   5.279E-01
    6.500   5.535E-01
    6.600   5.803E-01
    6.700   6.083E-01
    6.800   6.377E-01
    6.900   6.684E-01
    7.000   7.005E-01
    7.100   7.342E-01
    7.200   7.695E-01
    7.300   8.064E-01
    7.400   8.451E-01
    7.500   8.857E-01
    7.600   9.282E-01
    7.700   9.728E-01
    7.800   1.020E+00
    7.900   1.069E+00
    8.000   1.120E+00
    8.100   1.174E+00
    8.200   1.231E+00
    8.300   1.290E+00
    8.400   1.353E+00
    8.500   1.419E+00
    8.600   1.488E+00
    8.700   1.560E+00
    8.800   1.637E+00
    8.900   1.717E+00
    9.000   1.801E+00
    9.100   1.889E+00
    9.200   1.982E+00
    9.300   2.080E+00
    9.400   2.182E+00
    9.500   2.289E+00
    9.600   2.402E+00
    9.700   2.519E+00
    9.800   2.643E+00
    9.900   2.772E+00
   10.000   2.906E+00
   10.100   3.048E+00
   10.200   3.195E+00
   10.300   3.349E+00
   10.400   3.510E+00
   10.500   3.679E+00
   10.600   3.854E+00
   10.700   4.038E+00
   10.800   4.230E+00
   10.900   4.431E+00
   11.000   4.641E+00
   11.100   4.861E+00
   11.200   5.090E+00
   11.300   5.331E+00
   11.400   5.583E+00
   11.500   5.846E+00
   11.600   6.122E+00
   11.700   6.411E+00
   11.800   6.714E+00
   11.900   7.032E+00
   12.000   7.364E+00
   12.100   7.713E+00
   12.200   8.079E+00
   12.300   8.461E+00
   12.400   8.862E+00
   12.500   9.282E+00
   12.600   9.721E+00
   12.700   1.018E+01
   12.800   1.066E+01
   12.900   1.115E+01
   13.000   1.167E+01
   13.100   1.220E+01
   13.200   1.275E+01
   13.300   1.332E+01
   13.400   1.389E+01
   13.500   1.447E+01
   13.600   1.506E+01
   13.700   1.564E+01
   13.800   1.621E+01
   13.900   1.677E+01
   14.000   1.731E+01
   14.100   1.782E+01
   14.200   1.829E+01
   14.300   1.872E+01
   14.400   1.910E+01
   14.500   1.943E+01
   14.600   1.970E+01
   14.700   1.991E+01
   14.800   2.006E+01
   14.900   2.014E+01
   15.000   2.015E+01
   15.100   2.010E+01
   15.200   1.999E+01
   15.300   1.982E+01
   15.400   1.959E+01
   15.500   1.931E+01
   15.600   1.898E+01
   15.700   1.861E+01
   15.800   1.819E+01
   15.900   1.775E+01
   16.000   1.727E+01
   16.100   1.678E+01
   16.200   1.626E+01
   16.300   1.574E+01
   16.400   1.521E+01
   16.500   1.468E+01
   16.600   1.416E+01
   16.700   1.364E+01
   16.800   1.313E+01
   16.900   1.264E+01
   17.000   1.216E+01
   17.100   1.169E+01
   17.200   1.125E+01
   17.300   1.082E+01
   17.400   1.040E+01
   17.500   1.001E+01
   17.600   9.628E+00
   17.700   9.266E+00
   17.800   8.919E+00
   17.900   8.587E+00
   18.000   8.269E+00
   18.100   7.964E+00
   18.200   7.673E+00
   18.300   7.393E+00
   18.400   7.125E+00
   18.500   6.869E+00
   18.600   6.623E+00
   18.700   6.388E+00
   18.800   6.162E+00
   18.900   5.946E+00
   19.000   5.739E+00
   19.100   5.541E+00
   19.200   5.352E+00
   19.300   5.170E+00
   19.400   4.997E+00
   19.500   4.831E+00
   19.600   4.673E+00
   19.700   4.521E+00
   19.800   4.377E+00
   19.900   4.238E+00
   20.000   4.106E+00
   20.100   3.980E+00
   20.200   3.859E+00
   20.300   3.744E+00
   20.400   3.633E+00
   20.500   3.528E+00
   20.600   3.427E+00
   20.700   3.330E+00
   20.800   3.238E+00
   20.900   3.149E+00
   21.000   3.064E+00
   21.100   2.983E+00
   21.200   2.905E+00
   21.300   2.830E+00
   21.400   2.758E+00
   21.500   2.689E+00
   21.600   2.623E+00
   21.700   2.559E+00
   21.800   2.498E+00
   21.900   2.439E+00
   22.000   2.382E+00
   22.100   2.328E+00
   22.200   2.275E+00
   22.300   2.224E+00
   22.400   2.175E+00
   22.500   2.128E+00
   22.600   2.082E+00
   22.700   2.038E+00
   22.800   1.996E+00
   22.900   1.955E+00
   23.000   1.915E+00
   23.100   1.876E+00
   23.200   1.839E+00
   23.300   1.803E+00
   23.400   1.768E+00
   23.500   1.734E+00
   23.600   1.701E+00
   23.700   1.669E+00
   23.800   1.638E+00
   23.900   1.609E+00
   24.000   1.579E+00
   24.100   1.551E+00
   24.200   1.524E+00
   24.300   1.497E+00
   24.400   1.471E+00
   24.500   1.446E+00
   24.600   1.422E+00
   24.700   1.398E+00
   24.800   1.375E+00
   24.900   1.352E+00
   25.000   1.330E+00
   25.100   1.309E+00
   25.200   1.288E+00
   25.300   1.267E+00
   25.400   1.248E+00
   25.500   1.228E+00
   25.600   1.210E+00
   25.700   1.191E+00
   25.800   1.173E+00
   25.900   1.156E+00
   26.000   1.139E+00
   26.100   1.122E+00
   26.200   1.106E+00
   26.300   1.090E+00
   26.400   1.074E+00
   26.500   1.059E+00
   26.600   1.045E+00
   26.700   1.030E+00
   26.800   1.016E+00
   26.900   1.002E+00
   27.000   9.885E-01
   27.100   9.753E-01
   27.200   9.623E-01
   27.300   9.497E-01
   27.400   9.372E-01
   27.500   9.251E-01
   27.600   9.132E-01
   27.700   9.016E-01
   27.800   8.901E-01
   27.900   8.790E-01
   28.000   8.680E-01
   28.100   8.573E-01
   28.200   8.468E-01
   28.300   8.365E-01
   28.400   8.264E-01
   28.500   8.164E-01
   28.600   8.067E-01
   28.700   7.972E-01
   28.800   7.878E-01
   28.900   7.787E-01
   29.000   7.697E-01
   29.100   7.608E-01
   29.200   7.521E-01
   29.300   7.436E-01
   29.400   7.353E-01
   29.500   7.271E-01
   29.600   7.190E-01
   29.700   7.111E-01
   29.800   7.033E-01
   29.900   6.957E-01
   30.000   6.882E-01
 
 Z=  59 A= 143  D1M-QRPA-Inter
 E[MeV]  fQRPA[mb/MeV]
    0.100   1.088E-04
    0.200   4.355E-04
    0.300   9.803E-04
    0.400   1.744E-03
    0.500   2.728E-03
    0.600   3.932E-03
    0.700   5.359E-03
    0.800   7.011E-03
    0.900   8.889E-03
    1.000   1.100E-02
    1.100   1.333E-02
    1.200   1.591E-02
    1.300   1.872E-02
    1.400   2.177E-02
    1.500   2.506E-02
    1.600   2.861E-02
    1.700   3.241E-02
    1.800   3.647E-02
    1.900   4.079E-02
    2.000   4.538E-02
    2.100   5.025E-02
    2.200   5.541E-02
    2.300   6.085E-02
    2.400   6.658E-02
    2.500   7.263E-02
    2.600   7.899E-02
    2.700   8.566E-02
    2.800   9.267E-02
    2.900   1.000E-01
    3.000   1.077E-01
    3.100   1.158E-01
    3.200   1.242E-01
    3.300   1.331E-01
    3.400   1.423E-01
    3.500   1.520E-01
    3.600   1.620E-01
    3.700   1.726E-01
    3.800   1.836E-01
    3.900   1.950E-01
    4.000   2.070E-01
    4.100   2.195E-01
    4.200   2.326E-01
    4.300   2.462E-01
    4.400   2.604E-01
    4.500   2.752E-01
    4.600   2.906E-01
    4.700   3.067E-01
    4.800   3.235E-01
    4.900   3.411E-01
    5.000   3.594E-01
    5.100   3.785E-01
    5.200   3.984E-01
    5.300   4.193E-01
    5.400   4.410E-01
    5.500   4.637E-01
    5.600   4.874E-01
    5.700   5.122E-01
    5.800   5.381E-01
    5.900   5.652E-01
    6.000   5.936E-01
    6.100   6.232E-01
    6.200   6.542E-01
    6.300   6.866E-01
    6.400   7.205E-01
    6.500   7.561E-01
    6.600   7.933E-01
    6.700   8.322E-01
    6.800   8.731E-01
    6.900   9.158E-01
    7.000   9.606E-01
    7.100   1.008E+00
    7.200   1.057E+00
    7.300   1.108E+00
    7.400   1.163E+00
    7.500   1.219E+00
    7.600   1.279E+00
    7.700   1.341E+00
    7.800   1.407E+00
    7.900   1.475E+00
    8.000   1.547E+00
    8.100   1.623E+00
    8.200   1.702E+00
    8.300   1.785E+00
    8.400   1.872E+00
    8.500   1.963E+00
    8.600   2.059E+00
    8.700   2.159E+00
    8.800   2.264E+00
    8.900   2.374E+00
    9.000   2.489E+00
    9.100   2.609E+00
    9.200   2.735E+00
    9.300   2.866E+00
    9.400   3.003E+00
    9.500   3.146E+00
    9.600   3.295E+00
    9.700   3.450E+00
    9.800   3.611E+00
    9.900   3.779E+00
   10.000   3.954E+00
   10.100   4.136E+00
   10.200   4.325E+00
   10.300   4.521E+00
   10.400   4.726E+00
   10.500   4.939E+00
   10.600   5.161E+00
   10.700   5.392E+00
   10.800   5.633E+00
   10.900   5.884E+00
   11.000   6.146E+00
   11.100   6.420E+00
   11.200   6.706E+00
   11.300   7.005E+00
   11.400   7.318E+00
   11.500   7.645E+00
   11.600   7.987E+00
   11.700   8.345E+00
   11.800   8.720E+00
   11.900   9.112E+00
   12.000   9.522E+00
   12.100   9.950E+00
   12.200   1.040E+01
   12.300   1.086E+01
   12.400   1.135E+01
   12.500   1.185E+01
   12.600   1.237E+01
   12.700   1.291E+01
   12.800   1.346E+01
   12.900   1.403E+01
   13.000   1.460E+01
   13.100   1.519E+01
   13.200   1.577E+01
   13.300   1.635E+01
   13.400   1.693E+01
   13.500   1.750E+01
   13.600   1.804E+01
   13.700   1.857E+01
   13.800   1.906E+01
   13.900   1.952E+01
   14.000   1.994E+01
   14.100   2.031E+01
   14.200   2.063E+01
   14.300   2.090E+01
   14.400   2.111E+01
   14.500   2.127E+01
   14.600   2.136E+01
   14.700   2.140E+01
   14.800   2.139E+01
   14.900   2.132E+01
   15.000   2.119E+01
   15.100   2.101E+01
   15.200   2.079E+01
   15.300   2.052E+01
   15.400   2.020E+01
   15.500   1.985E+01
   15.600   1.946E+01
   15.700   1.904E+01
   15.800   1.860E+01
   15.900   1.813E+01
   16.000   1.764E+01
   16.100   1.715E+01
   16.200   1.664E+01
   16.300   1.612E+01
   16.400   1.561E+01
   16.500   1.510E+01
   16.600   1.459E+01
   16.700   1.409E+01
   16.800   1.360E+01
   16.900   1.311E+01
   17.000   1.265E+01
   17.100   1.219E+01
   17.200   1.175E+01
   17.300   1.132E+01
   17.400   1.090E+01
   17.500   1.050E+01
   17.600   1.012E+01
   17.700   9.749E+00
   17.800   9.393E+00
   17.900   9.051E+00
   18.000   8.723E+00
   18.100   8.409E+00
   18.200   8.109E+00
   18.300   7.821E+00
   18.400   7.545E+00
   18.500   7.282E+00
   18.600   7.030E+00
   18.700   6.790E+00
   18.800   6.560E+00
   18.900   6.340E+00
   19.000   6.131E+00
   19.100   5.931E+00
   19.200   5.740E+00
   19.300   5.557E+00
   19.400   5.383E+00
   19.500   5.216E+00
   19.600   5.057E+00
   19.700   4.905E+00
   19.800   4.759E+00
   19.900   4.620E+00
   20.000   4.487E+00
   20.100   4.359E+00
   20.200   4.237E+00
   20.300   4.121E+00
   20.400   4.008E+00
   20.500   3.901E+00
   20.600   3.798E+00
   20.700   3.699E+00
   20.800   3.604E+00
   20.900   3.513E+00
   21.000   3.425E+00
   21.100   3.341E+00
   21.200   3.260E+00
   21.300   3.182E+00
   21.400   3.107E+00
   21.500   3.034E+00
   21.600   2.965E+00
   21.700   2.897E+00
   21.800   2.832E+00
   21.900   2.770E+00
   22.000   2.709E+00
   22.100   2.651E+00
   22.200   2.595E+00
   22.300   2.540E+00
   22.400   2.488E+00
   22.500   2.437E+00
   22.600   2.387E+00
   22.700   2.340E+00
   22.800   2.293E+00
   22.900   2.249E+00
   23.000   2.205E+00
   23.100   2.163E+00
   23.200   2.122E+00
   23.300   2.083E+00
   23.400   2.044E+00
   23.500   2.007E+00
   23.600   1.971E+00
   23.700   1.936E+00
   23.800   1.902E+00
   23.900   1.868E+00
   24.000   1.836E+00
   24.100   1.805E+00
   24.200   1.774E+00
   24.300   1.745E+00
   24.400   1.716E+00
   24.500   1.688E+00
   24.600   1.660E+00
   24.700   1.633E+00
   24.800   1.607E+00
   24.900   1.582E+00
   25.000   1.557E+00
   25.100   1.533E+00
   25.200   1.510E+00
   25.300   1.487E+00
   25.400   1.465E+00
   25.500   1.443E+00
   25.600   1.421E+00
   25.700   1.401E+00
   25.800   1.380E+00
   25.900   1.361E+00
   26.000   1.341E+00
   26.100   1.322E+00
   26.200   1.304E+00
   26.300   1.286E+00
   26.400   1.268E+00
   26.500   1.251E+00
   26.600   1.234E+00
   26.700   1.217E+00
   26.800   1.201E+00
   26.900   1.185E+00
   27.000   1.170E+00
   27.100   1.154E+00
   27.200   1.140E+00
   27.300   1.125E+00
   27.400   1.111E+00
   27.500   1.097E+00
   27.600   1.083E+00
   27.700   1.070E+00
   27.800   1.056E+00
   27.900   1.044E+00
   28.000   1.031E+00
   28.100   1.019E+00
   28.200   1.006E+00
   28.300   9.945E-01
   28.400   9.828E-01
   28.500   9.713E-01
   28.600   9.600E-01
   28.700   9.490E-01
   28.800   9.381E-01
   28.900   9.275E-01
   29.000   9.170E-01
   29.100   9.068E-01
   29.200   8.967E-01
   29.300   8.868E-01
   29.400   8.771E-01
   29.500   8.675E-01
   29.600   8.581E-01
   29.700   8.489E-01
   29.800   8.398E-01
   29.900   8.309E-01
   30.000   8.222E-01
 
 Z=  59 A= 144  D1M-QRPA-Inter
 E[MeV]  fQRPA[mb/MeV]
    0.100   1.181E-04
    0.200   4.726E-04
    0.300   1.064E-03
    0.400   1.892E-03
    0.500   2.959E-03
    0.600   4.266E-03
    0.700   5.814E-03
    0.800   7.604E-03
    0.900   9.639E-03
    1.000   1.192E-02
    1.100   1.445E-02
    1.200   1.723E-02
    1.300   2.027E-02
    1.400   2.357E-02
    1.500   2.712E-02
    1.600   3.094E-02
    1.700   3.503E-02
    1.800   3.939E-02
    1.900   4.402E-02
    2.000   4.894E-02
    2.100   5.414E-02
    2.200   5.963E-02
    2.300   6.542E-02
    2.400   7.151E-02
    2.500   7.791E-02
    2.600   8.463E-02
    2.700   9.168E-02
    2.800   9.906E-02
    2.900   1.068E-01
    3.000   1.149E-01
    3.100   1.233E-01
    3.200   1.321E-01
    3.300   1.414E-01
    3.400   1.510E-01
    3.500   1.610E-01
    3.600   1.715E-01
    3.700   1.825E-01
    3.800   1.939E-01
    3.900   2.058E-01
    4.000   2.182E-01
    4.100   2.311E-01
    4.200   2.446E-01
    4.300   2.586E-01
    4.400   2.733E-01
    4.500   2.886E-01
    4.600   3.045E-01
    4.700   3.211E-01
    4.800   3.384E-01
    4.900   3.565E-01
    5.000   3.753E-01
    5.100   3.950E-01
    5.200   4.154E-01
    5.300   4.368E-01
    5.400   4.591E-01
    5.500   4.824E-01
    5.600   5.067E-01
    5.700   5.321E-01
    5.800   5.586E-01
    5.900   5.862E-01
    6.000   6.151E-01
    6.100   6.453E-01
    6.200   6.768E-01
    6.300   7.098E-01
    6.400   7.442E-01
    6.500   7.802E-01
    6.600   8.179E-01
    6.700   8.572E-01
    6.800   8.984E-01
    6.900   9.414E-01
    7.000   9.864E-01
    7.100   1.034E+00
    7.200   1.083E+00
    7.300   1.134E+00
    7.400   1.188E+00
    7.500   1.245E+00
    7.600   1.304E+00
    7.700   1.365E+00
    7.800   1.430E+00
    7.900   1.497E+00
    8.000   1.568E+00
    8.100   1.642E+00
    8.200   1.719E+00
    8.300   1.801E+00
    8.400   1.885E+00
    8.500   1.974E+00
    8.600   2.067E+00
    8.700   2.164E+00
    8.800   2.266E+00
    8.900   2.372E+00
    9.000   2.484E+00
    9.100   2.600E+00
    9.200   2.722E+00
    9.300   2.849E+00
    9.400   2.982E+00
    9.500   3.121E+00
    9.600   3.266E+00
    9.700   3.417E+00
    9.800   3.575E+00
    9.900   3.741E+00
   10.000   3.913E+00
   10.100   4.093E+00
   10.200   4.280E+00
   10.300   4.476E+00
   10.400   4.680E+00
   10.500   4.893E+00
   10.600   5.116E+00
   10.700   5.348E+00
   10.800   5.591E+00
   10.900   5.844E+00
   11.000   6.108E+00
   11.100   6.384E+00
   11.200   6.673E+00
   11.300   6.973E+00
   11.400   7.287E+00
   11.500   7.614E+00
   11.600   7.955E+00
   11.700   8.311E+00
   11.800   8.680E+00
   11.900   9.065E+00
   12.000   9.463E+00
   12.100   9.877E+00
   12.200   1.030E+01
   12.300   1.074E+01
   12.400   1.120E+01
   12.500   1.166E+01
   12.600   1.213E+01
   12.700   1.262E+01
   12.800   1.310E+01
   12.900   1.359E+01
   13.000   1.408E+01
   13.100   1.456E+01
   13.200   1.504E+01
   13.300   1.551E+01
   13.400   1.596E+01
   13.500   1.639E+01
   13.600   1.679E+01
   13.700   1.717E+01
   13.800   1.751E+01
   13.900   1.782E+01
   14.000   1.808E+01
   14.100   1.831E+01
   14.200   1.849E+01
   14.300   1.862E+01
   14.400   1.871E+01
   14.500   1.875E+01
   14.600   1.874E+01
   14.700   1.869E+01
   14.800   1.860E+01
   14.900   1.846E+01
   15.000   1.828E+01
   15.100   1.806E+01
   15.200   1.780E+01
   15.300   1.752E+01
   15.400   1.720E+01
   15.500   1.686E+01
   15.600   1.649E+01
   15.700   1.610E+01
   15.800   1.570E+01
   15.900   1.528E+01
   16.000   1.486E+01
   16.100   1.442E+01
   16.200   1.399E+01
   16.300   1.355E+01
   16.400   1.312E+01
   16.500   1.269E+01
   16.600   1.226E+01
   16.700   1.185E+01
   16.800   1.144E+01
   16.900   1.105E+01
   17.000   1.066E+01
   17.100   1.029E+01
   17.200   9.929E+00
   17.300   9.580E+00
   17.400   9.244E+00
   17.500   8.919E+00
   17.600   8.608E+00
   17.700   8.308E+00
   17.800   8.020E+00
   17.900   7.744E+00
   18.000   7.479E+00
   18.100   7.226E+00
   18.200   6.983E+00
   18.300   6.750E+00
   18.400   6.527E+00
   18.500   6.314E+00
   18.600   6.109E+00
   18.700   5.914E+00
   18.800   5.727E+00
   18.900   5.548E+00
   19.000   5.377E+00
   19.100   5.213E+00
   19.200   5.057E+00
   19.300   4.906E+00
   19.400   4.763E+00
   19.500   4.625E+00
   19.600   4.493E+00
   19.700   4.367E+00
   19.800   4.246E+00
   19.900   4.129E+00
   20.000   4.018E+00
   20.100   3.911E+00
   20.200   3.808E+00
   20.300   3.710E+00
   20.400   3.615E+00
   20.500   3.524E+00
   20.600   3.436E+00
   20.700   3.352E+00
   20.800   3.271E+00
   20.900   3.193E+00
   21.000   3.118E+00
   21.100   3.045E+00
   21.200   2.975E+00
   21.300   2.908E+00
   21.400   2.843E+00
   21.500   2.780E+00
   21.600   2.719E+00
   21.700   2.661E+00
   21.800   2.604E+00
   21.900   2.549E+00
   22.000   2.496E+00
   22.100   2.445E+00
   22.200   2.396E+00
   22.300   2.348E+00
   22.400   2.301E+00
   22.500   2.256E+00
   22.600   2.213E+00
   22.700   2.170E+00
   22.800   2.129E+00
   22.900   2.089E+00
   23.000   2.051E+00
   23.100   2.013E+00
   23.200   1.977E+00
   23.300   1.941E+00
   23.400   1.907E+00
   23.500   1.874E+00
   23.600   1.841E+00
   23.700   1.810E+00
   23.800   1.779E+00
   23.900   1.749E+00
   24.000   1.720E+00
   24.100   1.692E+00
   24.200   1.664E+00
   24.300   1.637E+00
   24.400   1.611E+00
   24.500   1.585E+00
   24.600   1.561E+00
   24.700   1.536E+00
   24.800   1.513E+00
   24.900   1.490E+00
   25.000   1.467E+00
   25.100   1.445E+00
   25.200   1.424E+00
   25.300   1.403E+00
   25.400   1.382E+00
   25.500   1.362E+00
   25.600   1.343E+00
   25.700   1.324E+00
   25.800   1.305E+00
   25.900   1.287E+00
   26.000   1.269E+00
   26.100   1.252E+00
   26.200   1.235E+00
   26.300   1.218E+00
   26.400   1.202E+00
   26.500   1.186E+00
   26.600   1.170E+00
   26.700   1.155E+00
   26.800   1.140E+00
   26.900   1.125E+00
   27.000   1.111E+00
   27.100   1.097E+00
   27.200   1.083E+00
   27.300   1.070E+00
   27.400   1.057E+00
   27.500   1.044E+00
   27.600   1.031E+00
   27.700   1.018E+00
   27.800   1.006E+00
   27.900   9.942E-01
   28.000   9.824E-01
   28.100   9.709E-01
   28.200   9.596E-01
   28.300   9.484E-01
   28.400   9.375E-01
   28.500   9.268E-01
   28.600   9.163E-01
   28.700   9.060E-01
   28.800   8.959E-01
   28.900   8.860E-01
   29.000   8.762E-01
   29.100   8.666E-01
   29.200   8.572E-01
   29.300   8.479E-01
   29.400   8.388E-01
   29.500   8.298E-01
   29.600   8.210E-01
   29.700   8.124E-01
   29.800   8.039E-01
   29.900   7.955E-01
   30.000   7.873E-01
 
 Z=  59 A= 145  D1M-QRPA-Inter
 E[MeV]  fQRPA[mb/MeV]
    0.100   1.653E-04
    0.200   6.612E-04
    0.300   1.488E-03
    0.400   2.648E-03
    0.500   4.140E-03
    0.600   5.968E-03
    0.700   8.132E-03
    0.800   1.063E-02
    0.900   1.348E-02
    1.000   1.666E-02
    1.100   2.020E-02
    1.200   2.408E-02
    1.300   2.831E-02
    1.400   3.290E-02
    1.500   3.784E-02
    1.600   4.315E-02
    1.700   4.881E-02
    1.800   5.485E-02
    1.900   6.126E-02
    2.000   6.804E-02
    2.100   7.520E-02
    2.200   8.274E-02
    2.300   9.068E-02
    2.400   9.902E-02
    2.500   1.078E-01
    2.600   1.169E-01
    2.700   1.265E-01
    2.800   1.365E-01
    2.900   1.470E-01
    3.000   1.579E-01
    3.100   1.693E-01
    3.200   1.812E-01
    3.300   1.936E-01
    3.400   2.066E-01
    3.500   2.201E-01
    3.600   2.341E-01
    3.700   2.488E-01
    3.800   2.640E-01
    3.900   2.799E-01
    4.000   2.965E-01
    4.100   3.137E-01
    4.200   3.317E-01
    4.300   3.504E-01
    4.400   3.699E-01
    4.500   3.902E-01
    4.600   4.114E-01
    4.700   4.335E-01
    4.800   4.565E-01
    4.900   4.804E-01
    5.000   5.054E-01
    5.100   5.314E-01
    5.200   5.586E-01
    5.300   5.869E-01
    5.400   6.164E-01
    5.500   6.471E-01
    5.600   6.792E-01
    5.700   7.127E-01
    5.800   7.476E-01
    5.900   7.840E-01
    6.000   8.220E-01
    6.100   8.616E-01
    6.200   9.030E-01
    6.300   9.461E-01
    6.400   9.912E-01
    6.500   1.038E+00
    6.600   1.087E+00
    6.700   1.139E+00
    6.800   1.192E+00
    6.900   1.248E+00
    7.000   1.306E+00
    7.100   1.367E+00
    7.200   1.430E+00
    7.300   1.497E+00
    7.400   1.566E+00
    7.500   1.638E+00
    7.600   1.713E+00
    7.700   1.792E+00
    7.800   1.874E+00
    7.900   1.960E+00
    8.000   2.049E+00
    8.100   2.143E+00
    8.200   2.240E+00
    8.300   2.342E+00
    8.400   2.448E+00
    8.500   2.559E+00
    8.600   2.675E+00
    8.700   2.797E+00
    8.800   2.924E+00
    8.900   3.056E+00
    9.000   3.195E+00
    9.100   3.340E+00
    9.200   3.492E+00
    9.300   3.651E+00
    9.400   3.818E+00
    9.500   3.992E+00
    9.600   4.174E+00
    9.700   4.365E+00
    9.800   4.565E+00
    9.900   4.774E+00
   10.000   4.993E+00
   10.100   5.222E+00
   10.200   5.462E+00
   10.300   5.714E+00
   10.400   5.977E+00
   10.500   6.252E+00
   10.600   6.540E+00
   10.700   6.841E+00
   10.800   7.156E+00
   10.900   7.485E+00
   11.000   7.828E+00
   11.100   8.187E+00
   11.200   8.561E+00
   11.300   8.951E+00
   11.400   9.357E+00
   11.500   9.779E+00
   11.600   1.022E+01
   11.700   1.067E+01
   11.800   1.114E+01
   11.900   1.163E+01
   12.000   1.213E+01
   12.100   1.264E+01
   12.200   1.317E+01
   12.300   1.370E+01
   12.400   1.424E+01
   12.500   1.479E+01
   12.600   1.534E+01
   12.700   1.590E+01
   12.800   1.644E+01
   12.900   1.698E+01
   13.000   1.750E+01
   13.100   1.801E+01
   13.200   1.850E+01
   13.300   1.896E+01
   13.400   1.939E+01
   13.500   1.979E+01
   13.600   2.015E+01
   13.700   2.047E+01
   13.800   2.074E+01
   13.900   2.097E+01
   14.000   2.115E+01
   14.100   2.128E+01
   14.200   2.136E+01
   14.300   2.140E+01
   14.400   2.138E+01
   14.500   2.132E+01
   14.600   2.121E+01
   14.700   2.105E+01
   14.800   2.085E+01
   14.900   2.061E+01
   15.000   2.033E+01
   15.100   2.001E+01
   15.200   1.966E+01
   15.300   1.928E+01
   15.400   1.888E+01
   15.500   1.846E+01
   15.600   1.801E+01
   15.700   1.755E+01
   15.800   1.708E+01
   15.900   1.661E+01
   16.000   1.613E+01
   16.100   1.564E+01
   16.200   1.516E+01
   16.300   1.468E+01
   16.400   1.421E+01
   16.500   1.375E+01
   16.600   1.330E+01
   16.700   1.285E+01
   16.800   1.242E+01
   16.900   1.200E+01
   17.000   1.159E+01
   17.100   1.120E+01
   17.200   1.082E+01
   17.300   1.046E+01
   17.400   1.010E+01
   17.500   9.766E+00
   17.600   9.442E+00
   17.700   9.130E+00
   17.800   8.831E+00
   17.900   8.544E+00
   18.000   8.269E+00
   18.100   8.006E+00
   18.200   7.753E+00
   18.300   7.512E+00
   18.400   7.280E+00
   18.500   7.058E+00
   18.600   6.846E+00
   18.700   6.642E+00
   18.800   6.447E+00
   18.900   6.260E+00
   19.000   6.081E+00
   19.100   5.909E+00
   19.200   5.744E+00
   19.300   5.586E+00
   19.400   5.434E+00
   19.500   5.288E+00
   19.600   5.148E+00
   19.700   5.013E+00
   19.800   4.884E+00
   19.900   4.759E+00
   20.000   4.640E+00
   20.100   4.524E+00
   20.200   4.413E+00
   20.300   4.307E+00
   20.400   4.204E+00
   20.500   4.104E+00
   20.600   4.009E+00
   20.700   3.917E+00
   20.800   3.828E+00
   20.900   3.742E+00
   21.000   3.659E+00
   21.100   3.579E+00
   21.200   3.501E+00
   21.300   3.426E+00
   21.400   3.354E+00
   21.500   3.284E+00
   21.600   3.216E+00
   21.700   3.150E+00
   21.800   3.087E+00
   21.900   3.025E+00
   22.000   2.966E+00
   22.100   2.908E+00
   22.200   2.852E+00
   22.300   2.798E+00
   22.400   2.745E+00
   22.500   2.694E+00
   22.600   2.644E+00
   22.700   2.596E+00
   22.800   2.549E+00
   22.900   2.503E+00
   23.000   2.459E+00
   23.100   2.416E+00
   23.200   2.374E+00
   23.300   2.334E+00
   23.400   2.294E+00
   23.500   2.255E+00
   23.600   2.218E+00
   23.700   2.181E+00
   23.800   2.146E+00
   23.900   2.111E+00
   24.000   2.077E+00
   24.100   2.044E+00
   24.200   2.012E+00
   24.300   1.981E+00
   24.400   1.950E+00
   24.500   1.921E+00
   24.600   1.892E+00
   24.700   1.863E+00
   24.800   1.836E+00
   24.900   1.809E+00
   25.000   1.782E+00
   25.100   1.756E+00
   25.200   1.731E+00
   25.300   1.706E+00
   25.400   1.682E+00
   25.500   1.659E+00
   25.600   1.636E+00
   25.700   1.613E+00
   25.800   1.591E+00
   25.900   1.570E+00
   26.000   1.549E+00
   26.100   1.528E+00
   26.200   1.508E+00
   26.300   1.488E+00
   26.400   1.469E+00
   26.500   1.450E+00
   26.600   1.431E+00
   26.700   1.413E+00
   26.800   1.395E+00
   26.900   1.378E+00
   27.000   1.361E+00
   27.100   1.344E+00
   27.200   1.328E+00
   27.300   1.312E+00
   27.400   1.296E+00
   27.500   1.280E+00
   27.600   1.265E+00
   27.700   1.250E+00
   27.800   1.236E+00
   27.900   1.221E+00
   28.000   1.207E+00
   28.100   1.193E+00
   28.200   1.180E+00
   28.300   1.166E+00
   28.400   1.153E+00
   28.500   1.140E+00
   28.600   1.128E+00
   28.700   1.115E+00
   28.800   1.103E+00
   28.900   1.091E+00
   29.000   1.079E+00
   29.100   1.068E+00
   29.200   1.057E+00
   29.300   1.045E+00
   29.400   1.034E+00
   29.500   1.024E+00
   29.600   1.013E+00
   29.700   1.002E+00
   29.800   9.922E-01
   29.900   9.821E-01
   30.000   9.722E-01
 
 Z=  59 A= 146  D1M-QRPA-Inter
 E[MeV]  fQRPA[mb/MeV]
    0.100   1.576E-04
    0.200   6.303E-04
    0.300   1.419E-03
    0.400   2.523E-03
    0.500   3.943E-03
    0.600   5.681E-03
    0.700   7.737E-03
    0.800   1.011E-02
    0.900   1.281E-02
    1.000   1.582E-02
    1.100   1.916E-02
    1.200   2.282E-02
    1.300   2.680E-02
    1.400   3.111E-02
    1.500   3.574E-02
    1.600   4.071E-02
    1.700   4.600E-02
    1.800   5.162E-02
    1.900   5.758E-02
    2.000   6.388E-02
    2.100   7.052E-02
    2.200   7.751E-02
    2.300   8.485E-02
    2.400   9.255E-02
    2.500   1.006E-01
    2.600   1.091E-01
    2.700   1.179E-01
    2.800   1.271E-01
    2.900   1.367E-01
    3.000   1.468E-01
    3.100   1.573E-01
    3.200   1.682E-01
    3.300   1.796E-01
    3.400   1.915E-01
    3.500   2.039E-01
    3.600   2.168E-01
    3.700   2.302E-01
    3.800   2.442E-01
    3.900   2.588E-01
    4.000   2.740E-01
    4.100   2.899E-01
    4.200   3.064E-01
    4.300   3.236E-01
    4.400   3.415E-01
    4.500   3.601E-01
    4.600   3.796E-01
    4.700   3.998E-01
    4.800   4.209E-01
    4.900   4.429E-01
    5.000   4.658E-01
    5.100   4.896E-01
    5.200   5.145E-01
    5.300   5.404E-01
    5.400   5.674E-01
    5.500   5.955E-01
    5.600   6.248E-01
    5.700   6.554E-01
    5.800   6.872E-01
    5.900   7.204E-01
    6.000   7.550E-01
    6.100   7.911E-01
    6.200   8.287E-01
    6.300   8.679E-01
    6.400   9.088E-01
    6.500   9.515E-01
    6.600   9.960E-01
    6.700   1.042E+00
    6.800   1.091E+00
    6.900   1.141E+00
    7.000   1.194E+00
    7.100   1.249E+00
    7.200   1.306E+00
    7.300   1.366E+00
    7.400   1.429E+00
    7.500   1.494E+00
    7.600   1.562E+00
    7.700   1.633E+00
    7.800   1.706E+00
    7.900   1.784E+00
    8.000   1.864E+00
    8.100   1.948E+00
    8.200   2.036E+00
    8.300   2.127E+00
    8.400   2.223E+00
    8.500   2.323E+00
    8.600   2.427E+00
    8.700   2.536E+00
    8.800   2.650E+00
    8.900   2.769E+00
    9.000   2.893E+00
    9.100   3.024E+00
    9.200   3.160E+00
    9.300   3.302E+00
    9.400   3.452E+00
    9.500   3.608E+00
    9.600   3.771E+00
    9.700   3.942E+00
    9.800   4.121E+00
    9.900   4.308E+00
   10.000   4.504E+00
   10.100   4.709E+00
   10.200   4.923E+00
   10.300   5.147E+00
   10.400   5.382E+00
   10.500   5.627E+00
   10.600   5.884E+00
   10.700   6.152E+00
   10.800   6.431E+00
   10.900   6.723E+00
   11.000   7.028E+00
   11.100   7.345E+00
   11.200   7.675E+00
   11.300   8.018E+00
   11.400   8.375E+00
   11.500   8.745E+00
   11.600   9.127E+00
   11.700   9.523E+00
   11.800   9.931E+00
   11.900   1.035E+01
   12.000   1.078E+01
   12.100   1.122E+01
   12.200   1.167E+01
   12.300   1.212E+01
   12.400   1.258E+01
   12.500   1.304E+01
   12.600   1.349E+01
   12.700   1.395E+01
   12.800   1.440E+01
   12.900   1.484E+01
   13.000   1.526E+01
   13.100   1.567E+01
   13.200   1.606E+01
   13.300   1.643E+01
   13.400   1.677E+01
   13.500   1.708E+01
   13.600   1.735E+01
   13.700   1.760E+01
   13.800   1.780E+01
   13.900   1.797E+01
   14.000   1.810E+01
   14.100   1.819E+01
   14.200   1.824E+01
   14.300   1.825E+01
   14.400   1.821E+01
   14.500   1.814E+01
   14.600   1.803E+01
   14.700   1.788E+01
   14.800   1.770E+01
   14.900   1.748E+01
   15.000   1.723E+01
   15.100   1.696E+01
   15.200   1.665E+01
   15.300   1.633E+01
   15.400   1.598E+01
   15.500   1.562E+01
   15.600   1.524E+01
   15.700   1.485E+01
   15.800   1.446E+01
   15.900   1.406E+01
   16.000   1.365E+01
   16.100   1.325E+01
   16.200   1.285E+01
   16.300   1.245E+01
   16.400   1.205E+01
   16.500   1.167E+01
   16.600   1.129E+01
   16.700   1.092E+01
   16.800   1.056E+01
   16.900   1.021E+01
   17.000   9.869E+00
   17.100   9.542E+00
   17.200   9.226E+00
   17.300   8.921E+00
   17.400   8.628E+00
   17.500   8.345E+00
   17.600   8.074E+00
   17.700   7.813E+00
   17.800   7.562E+00
   17.900   7.322E+00
   18.000   7.092E+00
   18.100   6.871E+00
   18.200   6.659E+00
   18.300   6.456E+00
   18.400   6.261E+00
   18.500   6.074E+00
   18.600   5.895E+00
   18.700   5.723E+00
   18.800   5.558E+00
   18.900   5.400E+00
   19.000   5.248E+00
   19.100   5.103E+00
   19.200   4.963E+00
   19.300   4.829E+00
   19.400   4.700E+00
   19.500   4.576E+00
   19.600   4.457E+00
   19.700   4.342E+00
   19.800   4.232E+00
   19.900   4.126E+00
   20.000   4.024E+00
   20.100   3.926E+00
   20.200   3.831E+00
   20.300   3.740E+00
   20.400   3.652E+00
   20.500   3.567E+00
   20.600   3.485E+00
   20.700   3.406E+00
   20.800   3.330E+00
   20.900   3.256E+00
   21.000   3.185E+00
   21.100   3.116E+00
   21.200   3.050E+00
   21.300   2.985E+00
   21.400   2.923E+00
   21.500   2.863E+00
   21.600   2.805E+00
   21.700   2.748E+00
   21.800   2.694E+00
   21.900   2.641E+00
   22.000   2.589E+00
   22.100   2.539E+00
   22.200   2.491E+00
   22.300   2.444E+00
   22.400   2.399E+00
   22.500   2.354E+00
   22.600   2.312E+00
   22.700   2.270E+00
   22.800   2.229E+00
   22.900   2.190E+00
   23.000   2.152E+00
   23.100   2.114E+00
   23.200   2.078E+00
   23.300   2.043E+00
   23.400   2.009E+00
   23.500   1.975E+00
   23.600   1.943E+00
   23.700   1.911E+00
   23.800   1.880E+00
   23.900   1.850E+00
   24.000   1.821E+00
   24.100   1.792E+00
   24.200   1.764E+00
   24.300   1.737E+00
   24.400   1.711E+00
   24.500   1.685E+00
   24.600   1.660E+00
   24.700   1.635E+00
   24.800   1.611E+00
   24.900   1.587E+00
   25.000   1.564E+00
   25.100   1.542E+00
   25.200   1.520E+00
   25.300   1.499E+00
   25.400   1.478E+00
   25.500   1.457E+00
   25.600   1.437E+00
   25.700   1.417E+00
   25.800   1.398E+00
   25.900   1.380E+00
   26.000   1.361E+00
   26.100   1.343E+00
   26.200   1.326E+00
   26.300   1.308E+00
   26.400   1.292E+00
   26.500   1.275E+00
   26.600   1.259E+00
   26.700   1.243E+00
   26.800   1.227E+00
   26.900   1.212E+00
   27.000   1.197E+00
   27.100   1.183E+00
   27.200   1.168E+00
   27.300   1.154E+00
   27.400   1.140E+00
   27.500   1.127E+00
   27.600   1.114E+00
   27.700   1.101E+00
   27.800   1.088E+00
   27.900   1.075E+00
   28.000   1.063E+00
   28.100   1.051E+00
   28.200   1.039E+00
   28.300   1.027E+00
   28.400   1.016E+00
   28.500   1.004E+00
   28.600   9.934E-01
   28.700   9.826E-01
   28.800   9.719E-01
   28.900   9.614E-01
   29.000   9.511E-01
   29.100   9.410E-01
   29.200   9.310E-01
   29.300   9.212E-01
   29.400   9.116E-01
   29.500   9.022E-01
   29.600   8.928E-01
   29.700   8.837E-01
   29.800   8.747E-01
   29.900   8.658E-01
   30.000   8.571E-01
 
 Z=  59 A= 147  D1M-QRPA-Inter
 E[MeV]  fQRPA[mb/MeV]
    0.100   2.057E-04
    0.200   8.229E-04
    0.300   1.851E-03
    0.400   3.292E-03
    0.500   5.143E-03
    0.600   7.406E-03
    0.700   1.008E-02
    0.800   1.317E-02
    0.900   1.666E-02
    1.000   2.057E-02
    1.100   2.488E-02
    1.200   2.961E-02
    1.300   3.474E-02
    1.400   4.028E-02
    1.500   4.623E-02
    1.600   5.259E-02
    1.700   5.936E-02
    1.800   6.654E-02
    1.900   7.414E-02
    2.000   8.215E-02
    2.100   9.058E-02
    2.200   9.944E-02
    2.300   1.087E-01
    2.400   1.185E-01
    2.500   1.287E-01
    2.600   1.393E-01
    2.700   1.505E-01
    2.800   1.621E-01
    2.900   1.742E-01
    3.000   1.869E-01
    3.100   2.001E-01
    3.200   2.138E-01
    3.300   2.282E-01
    3.400   2.431E-01
    3.500   2.587E-01
    3.600   2.749E-01
    3.700   2.918E-01
    3.800   3.094E-01
    3.900   3.278E-01
    4.000   3.469E-01
    4.100   3.668E-01
    4.200   3.876E-01
    4.300   4.092E-01
    4.400   4.317E-01
    4.500   4.552E-01
    4.600   4.796E-01
    4.700   5.050E-01
    4.800   5.315E-01
    4.900   5.592E-01
    5.000   5.879E-01
    5.100   6.178E-01
    5.200   6.490E-01
    5.300   6.815E-01
    5.400   7.153E-01
    5.500   7.505E-01
    5.600   7.871E-01
    5.700   8.253E-01
    5.800   8.651E-01
    5.900   9.065E-01
    6.000   9.497E-01
    6.100   9.946E-01
    6.200   1.041E+00
    6.300   1.090E+00
    6.400   1.141E+00
    6.500   1.194E+00
    6.600   1.249E+00
    6.700   1.307E+00
    6.800   1.367E+00
    6.900   1.430E+00
    7.000   1.495E+00
    7.100   1.563E+00
    7.200   1.634E+00
    7.300   1.708E+00
    7.400   1.785E+00
    7.500   1.866E+00
    7.600   1.949E+00
    7.700   2.037E+00
    7.800   2.128E+00
    7.900   2.223E+00
    8.000   2.322E+00
    8.100   2.426E+00
    8.200   2.534E+00
    8.300   2.646E+00
    8.400   2.764E+00
    8.500   2.887E+00
    8.600   3.015E+00
    8.700   3.149E+00
    8.800   3.289E+00
    8.900   3.435E+00
    9.000   3.588E+00
    9.100   3.748E+00
    9.200   3.916E+00
    9.300   4.091E+00
    9.400   4.274E+00
    9.500   4.465E+00
    9.600   4.665E+00
    9.700   4.875E+00
    9.800   5.094E+00
    9.900   5.323E+00
   10.000   5.563E+00
   10.100   5.814E+00
   10.200   6.077E+00
   10.300   6.351E+00
   10.400   6.638E+00
   10.500   6.937E+00
   10.600   7.250E+00
   10.700   7.576E+00
   10.800   7.916E+00
   10.900   8.271E+00
   11.000   8.640E+00
   11.100   9.024E+00
   11.200   9.423E+00
   11.300   9.837E+00
   11.400   1.027E+01
   11.500   1.071E+01
   11.600   1.117E+01
   11.700   1.164E+01
   11.800   1.212E+01
   11.900   1.262E+01
   12.000   1.312E+01
   12.100   1.364E+01
   12.200   1.416E+01
   12.300   1.468E+01
   12.400   1.521E+01
   12.500   1.573E+01
   12.600   1.625E+01
   12.700   1.677E+01
   12.800   1.727E+01
   12.900   1.776E+01
   13.000   1.823E+01
   13.100   1.867E+01
   13.200   1.910E+01
   13.300   1.949E+01
   13.400   1.985E+01
   13.500   2.018E+01
   13.600   2.047E+01
   13.700   2.072E+01
   13.800   2.093E+01
   13.900   2.110E+01
   14.000   2.122E+01
   14.100   2.129E+01
   14.200   2.132E+01
   14.300   2.131E+01
   14.400   2.125E+01
   14.500   2.114E+01
   14.600   2.100E+01
   14.700   2.081E+01
   14.800   2.058E+01
   14.900   2.031E+01
   15.000   2.001E+01
   15.100   1.968E+01
   15.200   1.932E+01
   15.300   1.893E+01
   15.400   1.853E+01
   15.500   1.810E+01
   15.600   1.766E+01
   15.700   1.721E+01
   15.800   1.676E+01
   15.900   1.629E+01
   16.000   1.583E+01
   16.100   1.536E+01
   16.200   1.490E+01
   16.300   1.445E+01
   16.400   1.400E+01
   16.500   1.355E+01
   16.600   1.312E+01
   16.700   1.270E+01
   16.800   1.229E+01
   16.900   1.189E+01
   17.000   1.151E+01
   17.100   1.113E+01
   17.200   1.077E+01
   17.300   1.042E+01
   17.400   1.009E+01
   17.500   9.765E+00
   17.600   9.455E+00
   17.700   9.156E+00
   17.800   8.869E+00
   17.900   8.594E+00
   18.000   8.329E+00
   18.100   8.075E+00
   18.200   7.832E+00
   18.300   7.598E+00
   18.400   7.373E+00
   18.500   7.158E+00
   18.600   6.951E+00
   18.700   6.753E+00
   18.800   6.562E+00
   18.900   6.379E+00
   19.000   6.204E+00
   19.100   6.035E+00
   19.200   5.873E+00
   19.300   5.717E+00
   19.400   5.567E+00
   19.500   5.423E+00
   19.600   5.284E+00
   19.700   5.151E+00
   19.800   5.022E+00
   19.900   4.899E+00
   20.000   4.780E+00
   20.100   4.665E+00
   20.200   4.554E+00
   20.300   4.447E+00
   20.400   4.344E+00
   20.500   4.245E+00
   20.600   4.149E+00
   20.700   4.057E+00
   20.800   3.967E+00
   20.900   3.881E+00
   21.000   3.797E+00
   21.100   3.716E+00
   21.200   3.638E+00
   21.300   3.563E+00
   21.400   3.489E+00
   21.500   3.418E+00
   21.600   3.350E+00
   21.700   3.283E+00
   21.800   3.219E+00
   21.900   3.156E+00
   22.000   3.096E+00
   22.100   3.037E+00
   22.200   2.980E+00
   22.300   2.924E+00
   22.400   2.871E+00
   22.500   2.818E+00
   22.600   2.767E+00
   22.700   2.718E+00
   22.800   2.670E+00
   22.900   2.624E+00
   23.000   2.578E+00
   23.100   2.534E+00
   23.200   2.491E+00
   23.300   2.449E+00
   23.400   2.409E+00
   23.500   2.369E+00
   23.600   2.330E+00
   23.700   2.293E+00
   23.800   2.256E+00
   23.900   2.221E+00
   24.000   2.186E+00
   24.100   2.152E+00
   24.200   2.119E+00
   24.300   2.086E+00
   24.400   2.055E+00
   24.500   2.024E+00
   24.600   1.994E+00
   24.700   1.965E+00
   24.800   1.936E+00
   24.900   1.908E+00
   25.000   1.881E+00
   25.100   1.854E+00
   25.200   1.828E+00
   25.300   1.802E+00
   25.400   1.777E+00
   25.500   1.753E+00
   25.600   1.729E+00
   25.700   1.705E+00
   25.800   1.683E+00
   25.900   1.660E+00
   26.000   1.638E+00
   26.100   1.617E+00
   26.200   1.596E+00
   26.300   1.575E+00
   26.400   1.555E+00
   26.500   1.535E+00
   26.600   1.516E+00
   26.700   1.497E+00
   26.800   1.478E+00
   26.900   1.460E+00
   27.000   1.442E+00
   27.100   1.425E+00
   27.200   1.408E+00
   27.300   1.391E+00
   27.400   1.374E+00
   27.500   1.358E+00
   27.600   1.342E+00
   27.700   1.327E+00
   27.800   1.311E+00
   27.900   1.296E+00
   28.000   1.282E+00
   28.100   1.267E+00
   28.200   1.253E+00
   28.300   1.239E+00
   28.400   1.225E+00
   28.500   1.212E+00
   28.600   1.198E+00
   28.700   1.185E+00
   28.800   1.173E+00
   28.900   1.160E+00
   29.000   1.148E+00
   29.100   1.136E+00
   29.200   1.124E+00
   29.300   1.112E+00
   29.400   1.100E+00
   29.500   1.089E+00
   29.600   1.078E+00
   29.700   1.067E+00
   29.800   1.056E+00
   29.900   1.045E+00
   30.000   1.035E+00
 
 Z=  59 A= 148  D1M-QRPA-Inter
 E[MeV]  fQRPA[mb/MeV]
    0.100   1.464E-03
    0.200   3.619E-03
    0.300   6.066E-03
    0.400   8.745E-03
    0.500   1.163E-02
    0.600   1.471E-02
    0.700   1.798E-02
    0.800   2.144E-02
    0.900   2.508E-02
    1.000   2.892E-02
    1.100   3.296E-02
    1.200   3.721E-02
    1.300   4.167E-02
    1.400   4.636E-02
    1.500   5.127E-02
    1.600   5.643E-02
    1.700   6.184E-02
    1.800   6.752E-02
    1.900   7.348E-02
    2.000   7.973E-02
    2.100   8.629E-02
    2.200   9.318E-02
    2.300   1.004E-01
    2.400   1.080E-01
    2.500   1.159E-01
    2.600   1.243E-01
    2.700   1.331E-01
    2.800   1.423E-01
    2.900   1.519E-01
    3.000   1.620E-01
    3.100   1.727E-01
    3.200   1.838E-01
    3.300   1.956E-01
    3.400   2.079E-01
    3.500   2.209E-01
    3.600   2.346E-01
    3.700   2.491E-01
    3.800   2.643E-01
    3.900   2.803E-01
    4.000   2.972E-01
    4.100   3.150E-01
    4.200   3.337E-01
    4.300   3.534E-01
    4.400   3.741E-01
    4.500   3.957E-01
    4.600   4.184E-01
    4.700   4.420E-01
    4.800   4.666E-01
    4.900   4.922E-01
    5.000   5.187E-01
    5.100   5.463E-01
    5.200   5.747E-01
    5.300   6.041E-01
    5.400   6.345E-01
    5.500   6.659E-01
    5.600   6.983E-01
    5.700   7.317E-01
    5.800   7.662E-01
    5.900   8.019E-01
    6.000   8.389E-01
    6.100   8.772E-01
    6.200   9.169E-01
    6.300   9.583E-01
    6.400   1.001E+00
    6.500   1.046E+00
    6.600   1.093E+00
    6.700   1.142E+00
    6.800   1.192E+00
    6.900   1.246E+00
    7.000   1.301E+00
    7.100   1.359E+00
    7.200   1.420E+00
    7.300   1.484E+00
    7.400   1.550E+00
    7.500   1.620E+00
    7.600   1.693E+00
    7.700   1.770E+00
    7.800   1.850E+00
    7.900   1.934E+00
    8.000   2.022E+00
    8.100   2.114E+00
    8.200   2.211E+00
    8.300   2.313E+00
    8.400   2.420E+00
    8.500   2.532E+00
    8.600   2.650E+00
    8.700   2.775E+00
    8.800   2.906E+00
    8.900   3.044E+00
    9.000   3.190E+00
    9.100   3.344E+00
    9.200   3.506E+00
    9.300   3.678E+00
    9.400   3.859E+00
    9.500   4.051E+00
    9.600   4.255E+00
    9.700   4.470E+00
    9.800   4.699E+00
    9.900   4.940E+00
   10.000   5.197E+00
   10.100   5.468E+00
   10.200   5.756E+00
   10.300   6.061E+00
   10.400   6.382E+00
   10.500   6.722E+00
   10.600   7.080E+00
   10.700   7.455E+00
   10.800   7.848E+00
   10.900   8.258E+00
   11.000   8.682E+00
   11.100   9.119E+00
   11.200   9.566E+00
   11.300   1.002E+01
   11.400   1.047E+01
   11.500   1.092E+01
   11.600   1.136E+01
   11.700   1.179E+01
   11.800   1.219E+01
   11.900   1.257E+01
   12.000   1.293E+01
   12.100   1.325E+01
   12.200   1.355E+01
   12.300   1.382E+01
   12.400   1.407E+01
   12.500   1.429E+01
   12.600   1.449E+01
   12.700   1.468E+01
   12.800   1.486E+01
   12.900   1.503E+01
   13.000   1.519E+01
   13.100   1.535E+01
   13.200   1.550E+01
   13.300   1.565E+01
   13.400   1.579E+01
   13.500   1.592E+01
   13.600   1.605E+01
   13.700   1.616E+01
   13.800   1.627E+01
   13.900   1.635E+01
   14.000   1.641E+01
   14.100   1.646E+01
   14.200   1.647E+01
   14.300   1.647E+01
   14.400   1.644E+01
   14.500   1.638E+01
   14.600   1.630E+01
   14.700   1.619E+01
   14.800   1.607E+01
   14.900   1.592E+01
   15.000   1.576E+01
   15.100   1.559E+01
   15.200   1.541E+01
   15.300   1.522E+01
   15.400   1.502E+01
   15.500   1.482E+01
   15.600   1.461E+01
   15.700   1.440E+01
   15.800   1.418E+01
   15.900   1.395E+01
   16.000   1.370E+01
   16.100   1.345E+01
   16.200   1.318E+01
   16.300   1.290E+01
   16.400   1.260E+01
   16.500   1.228E+01
   16.600   1.196E+01
   16.700   1.163E+01
   16.800   1.128E+01
   16.900   1.094E+01
   17.000   1.059E+01
   17.100   1.024E+01
   17.200   9.896E+00
   17.300   9.557E+00
   17.400   9.225E+00
   17.500   8.902E+00
   17.600   8.589E+00
   17.700   8.288E+00
   17.800   7.999E+00
   17.900   7.723E+00
   18.000   7.461E+00
   18.100   7.212E+00
   18.200   6.976E+00
   18.300   6.753E+00
   18.400   6.542E+00
   18.500   6.343E+00
   18.600   6.155E+00
   18.700   5.977E+00
   18.800   5.809E+00
   18.900   5.649E+00
   19.000   5.497E+00
   19.100   5.352E+00
   19.200   5.213E+00
   19.300   5.080E+00
   19.400   4.952E+00
   19.500   4.829E+00
   19.600   4.710E+00
   19.700   4.595E+00
   19.800   4.483E+00
   19.900   4.375E+00
   20.000   4.270E+00
   20.100   4.167E+00
   20.200   4.067E+00
   20.300   3.970E+00
   20.400   3.876E+00
   20.500   3.783E+00
   20.600   3.693E+00
   20.700   3.606E+00
   20.800   3.521E+00
   20.900   3.439E+00
   21.000   3.359E+00
   21.100   3.282E+00
   21.200   3.207E+00
   21.300   3.135E+00
   21.400   3.065E+00
   21.500   2.997E+00
   21.600   2.932E+00
   21.700   2.868E+00
   21.800   2.806E+00
   21.900   2.746E+00
   22.000   2.688E+00
   22.100   2.631E+00
   22.200   2.575E+00
   22.300   2.521E+00
   22.400   2.468E+00
   22.500   2.416E+00
   22.600   2.366E+00
   22.700   2.316E+00
   22.800   2.267E+00
   22.900   2.219E+00
   23.000   2.173E+00
   23.100   2.127E+00
   23.200   2.082E+00
   23.300   2.038E+00
   23.400   1.995E+00
   23.500   1.953E+00
   23.600   1.912E+00
   23.700   1.872E+00
   23.800   1.833E+00
   23.900   1.795E+00
   24.000   1.758E+00
   24.100   1.722E+00
   24.200   1.686E+00
   24.300   1.652E+00
   24.400   1.619E+00
   24.500   1.587E+00
   24.600   1.555E+00
   24.700   1.525E+00
   24.800   1.496E+00
   24.900   1.467E+00
   25.000   1.439E+00
   25.100   1.412E+00
   25.200   1.386E+00
   25.300   1.361E+00
   25.400   1.336E+00
   25.500   1.312E+00
   25.600   1.289E+00
   25.700   1.266E+00
   25.800   1.244E+00
   25.900   1.223E+00
   26.000   1.202E+00
   26.100   1.182E+00
   26.200   1.162E+00
   26.300   1.143E+00
   26.400   1.124E+00
   26.500   1.106E+00
   26.600   1.088E+00
   26.700   1.070E+00
   26.800   1.054E+00
   26.900   1.037E+00
   27.000   1.021E+00
   27.100   1.006E+00
   27.200   9.909E-01
   27.300   9.763E-01
   27.400   9.621E-01
   27.500   9.483E-01
   27.600   9.349E-01
   27.700   9.218E-01
   27.800   9.091E-01
   27.900   8.967E-01
   28.000   8.846E-01
   28.100   8.728E-01
   28.200   8.614E-01
   28.300   8.502E-01
   28.400   8.392E-01
   28.500   8.286E-01
   28.600   8.181E-01
   28.700   8.079E-01
   28.800   7.980E-01
   28.900   7.882E-01
   29.000   7.787E-01
   29.100   7.694E-01
   29.200   7.603E-01
   29.300   7.513E-01
   29.400   7.426E-01
   29.500   7.340E-01
   29.600   7.256E-01
   29.700   7.174E-01
   29.800   7.093E-01
   29.900   7.014E-01
   30.000   6.937E-01
 
 Z=  59 A= 149  D1M-QRPA-Inter
 E[MeV]  fQRPA[mb/MeV]
    0.100   1.421E-02
    0.200   2.171E-02
    0.300   2.711E-02
    0.400   3.169E-02
    0.500   3.588E-02
    0.600   3.986E-02
    0.700   4.374E-02
    0.800   4.760E-02
    0.900   5.150E-02
    1.000   5.548E-02
    1.100   5.956E-02
    1.200   6.379E-02
    1.300   6.818E-02
    1.400   7.276E-02
    1.500   7.755E-02
    1.600   8.258E-02
    1.700   8.787E-02
    1.800   9.345E-02
    1.900   9.933E-02
    2.000   1.056E-01
    2.100   1.121E-01
    2.200   1.191E-01
    2.300   1.265E-01
    2.400   1.343E-01
    2.500   1.425E-01
    2.600   1.513E-01
    2.700   1.605E-01
    2.800   1.703E-01
    2.900   1.806E-01
    3.000   1.916E-01
    3.100   2.032E-01
    3.200   2.156E-01
    3.300   2.286E-01
    3.400   2.426E-01
    3.500   2.574E-01
    3.600   2.731E-01
    3.700   2.899E-01
    3.800   3.078E-01
    3.900   3.269E-01
    4.000   3.472E-01
    4.100   3.689E-01
    4.200   3.919E-01
    4.300   4.163E-01
    4.400   4.421E-01
    4.500   4.692E-01
    4.600   4.978E-01
    4.700   5.276E-01
    4.800   5.587E-01
    4.900   5.909E-01
    5.000   6.243E-01
    5.100   6.588E-01
    5.200   6.942E-01
    5.300   7.305E-01
    5.400   7.677E-01
    5.500   8.058E-01
    5.600   8.448E-01
    5.700   8.847E-01
    5.800   9.256E-01
    5.900   9.675E-01
    6.000   1.011E+00
    6.100   1.055E+00
    6.200   1.101E+00
    6.300   1.149E+00
    6.400   1.198E+00
    6.500   1.250E+00
    6.600   1.304E+00
    6.700   1.360E+00
    6.800   1.419E+00
    6.900   1.480E+00
    7.000   1.545E+00
    7.100   1.612E+00
    7.200   1.684E+00
    7.300   1.758E+00
    7.400   1.837E+00
    7.500   1.919E+00
    7.600   2.006E+00
    7.700   2.097E+00
    7.800   2.193E+00
    7.900   2.294E+00
    8.000   2.401E+00
    8.100   2.513E+00
    8.200   2.632E+00
    8.300   2.757E+00
    8.400   2.889E+00
    8.500   3.029E+00
    8.600   3.178E+00
    8.700   3.335E+00
    8.800   3.502E+00
    8.900   3.679E+00
    9.000   3.867E+00
    9.100   4.068E+00
    9.200   4.282E+00
    9.300   4.510E+00
    9.400   4.754E+00
    9.500   5.014E+00
    9.600   5.293E+00
    9.700   5.591E+00
    9.800   5.911E+00
    9.900   6.254E+00
   10.000   6.621E+00
   10.100   7.015E+00
   10.200   7.437E+00
   10.300   7.888E+00
   10.400   8.371E+00
   10.500   8.884E+00
   10.600   9.430E+00
   10.700   1.001E+01
   10.800   1.061E+01
   10.900   1.125E+01
   11.000   1.190E+01
   11.100   1.257E+01
   11.200   1.325E+01
   11.300   1.392E+01
   11.400   1.457E+01
   11.500   1.519E+01
   11.600   1.577E+01
   11.700   1.629E+01
   11.800   1.673E+01
   11.900   1.709E+01
   12.000   1.738E+01
   12.100   1.758E+01
   12.200   1.770E+01
   12.300   1.775E+01
   12.400   1.775E+01
   12.500   1.771E+01
   12.600   1.763E+01
   12.700   1.754E+01
   12.800   1.745E+01
   12.900   1.735E+01
   13.000   1.727E+01
   13.100   1.721E+01
   13.200   1.716E+01
   13.300   1.714E+01
   13.400   1.713E+01
   13.500   1.714E+01
   13.600   1.716E+01
   13.700   1.720E+01
   13.800   1.724E+01
   13.900   1.728E+01
   14.000   1.732E+01
   14.100   1.735E+01
   14.200   1.736E+01
   14.300   1.736E+01
   14.400   1.734E+01
   14.500   1.731E+01
   14.600   1.725E+01
   14.700   1.719E+01
   14.800   1.711E+01
   14.900   1.702E+01
   15.000   1.693E+01
   15.100   1.685E+01
   15.200   1.676E+01
   15.300   1.668E+01
   15.400   1.661E+01
   15.500   1.655E+01
   15.600   1.649E+01
   15.700   1.643E+01
   15.800   1.636E+01
   15.900   1.628E+01
   16.000   1.618E+01
   16.100   1.606E+01
   16.200   1.590E+01
   16.300   1.570E+01
   16.400   1.546E+01
   16.500   1.519E+01
   16.600   1.487E+01
   16.700   1.452E+01
   16.800   1.413E+01
   16.900   1.372E+01
   17.000   1.329E+01
   17.100   1.285E+01
   17.200   1.240E+01
   17.300   1.195E+01
   17.400   1.151E+01
   17.500   1.107E+01
   17.600   1.064E+01
   17.700   1.023E+01
   17.800   9.840E+00
   17.900   9.468E+00
   18.000   9.116E+00
   18.100   8.785E+00
   18.200   8.475E+00
   18.300   8.187E+00
   18.400   7.918E+00
   18.500   7.667E+00
   18.600   7.434E+00
   18.700   7.217E+00
   18.800   7.014E+00
   18.900   6.823E+00
   19.000   6.643E+00
   19.100   6.473E+00
   19.200   6.311E+00
   19.300   6.156E+00
   19.400   6.008E+00
   19.500   5.864E+00
   19.600   5.725E+00
   19.700   5.590E+00
   19.800   5.458E+00
   19.900   5.329E+00
   20.000   5.202E+00
   20.100   5.078E+00
   20.200   4.955E+00
   20.300   4.834E+00
   20.400   4.715E+00
   20.500   4.599E+00
   20.600   4.484E+00
   20.700   4.372E+00
   20.800   4.263E+00
   20.900   4.157E+00
   21.000   4.053E+00
   21.100   3.953E+00
   21.200   3.856E+00
   21.300   3.763E+00
   21.400   3.672E+00
   21.500   3.584E+00
   21.600   3.500E+00
   21.700   3.417E+00
   21.800   3.337E+00
   21.900   3.259E+00
   22.000   3.183E+00
   22.100   3.109E+00
   22.200   3.036E+00
   22.300   2.965E+00
   22.400   2.895E+00
   22.500   2.826E+00
   22.600   2.758E+00
   22.700   2.691E+00
   22.800   2.625E+00
   22.900   2.561E+00
   23.000   2.497E+00
   23.100   2.434E+00
   23.200   2.373E+00
   23.300   2.313E+00
   23.400   2.254E+00
   23.500   2.196E+00
   23.600   2.139E+00
   23.700   2.084E+00
   23.800   2.031E+00
   23.900   1.979E+00
   24.000   1.928E+00
   24.100   1.879E+00
   24.200   1.831E+00
   24.300   1.785E+00
   24.400   1.740E+00
   24.500   1.697E+00
   24.600   1.655E+00
   24.700   1.615E+00
   24.800   1.576E+00
   24.900   1.539E+00
   25.000   1.502E+00
   25.100   1.468E+00
   25.200   1.434E+00
   25.300   1.402E+00
   25.400   1.370E+00
   25.500   1.340E+00
   25.600   1.311E+00
   25.700   1.282E+00
   25.800   1.255E+00
   25.900   1.229E+00
   26.000   1.203E+00
   26.100   1.178E+00
   26.200   1.154E+00
   26.300   1.130E+00
   26.400   1.108E+00
   26.500   1.086E+00
   26.600   1.065E+00
   26.700   1.044E+00
   26.800   1.024E+00
   26.900   1.005E+00
   27.000   9.865E-01
   27.100   9.686E-01
   27.200   9.514E-01
   27.300   9.347E-01
   27.400   9.186E-01
   27.500   9.031E-01
   27.600   8.881E-01
   27.700   8.736E-01
   27.800   8.596E-01
   27.900   8.460E-01
   28.000   8.329E-01
   28.100   8.201E-01
   28.200   8.078E-01
   28.300   7.958E-01
   28.400   7.841E-01
   28.500   7.728E-01
   28.600   7.618E-01
   28.700   7.511E-01
   28.800   7.407E-01
   28.900   7.306E-01
   29.000   7.207E-01
   29.100   7.111E-01
   29.200   7.017E-01
   29.300   6.925E-01
   29.400   6.836E-01
   29.500   6.749E-01
   29.600   6.664E-01
   29.700   6.580E-01
   29.800   6.499E-01
   29.900   6.420E-01
   30.000   6.342E-01
 
 Z=  59 A= 150  D1M-QRPA-Inter
 E[MeV]  fQRPA[mb/MeV]
    0.100   2.273E-02
    0.200   3.171E-02
    0.300   3.738E-02
    0.400   4.205E-02
    0.500   4.619E-02
    0.600   4.998E-02
    0.700   5.352E-02
    0.800   5.691E-02
    0.900   6.024E-02
    1.000   6.358E-02
    1.100   6.699E-02
    1.200   7.051E-02
    1.300   7.417E-02
    1.400   7.801E-02
    1.500   8.204E-02
    1.600   8.628E-02
    1.700   9.077E-02
    1.800   9.553E-02
    1.900   1.006E-01
    2.000   1.060E-01
    2.100   1.118E-01
    2.200   1.181E-01
    2.300   1.249E-01
    2.400   1.322E-01
    2.500   1.402E-01
    2.600   1.489E-01
    2.700   1.584E-01
    2.800   1.687E-01
    2.900   1.797E-01
    3.000   1.917E-01
    3.100   2.046E-01
    3.200   2.184E-01
    3.300   2.332E-01
    3.400   2.488E-01
    3.500   2.653E-01
    3.600   2.826E-01
    3.700   3.007E-01
    3.800   3.196E-01
    3.900   3.393E-01
    4.000   3.598E-01
    4.100   3.812E-01
    4.200   4.035E-01
    4.300   4.267E-01
    4.400   4.507E-01
    4.500   4.756E-01
    4.600   5.013E-01
    4.700   5.278E-01
    4.800   5.552E-01
    4.900   5.836E-01
    5.000   6.129E-01
    5.100   6.435E-01
    5.200   6.752E-01
    5.300   7.082E-01
    5.400   7.427E-01
    5.500   7.787E-01
    5.600   8.163E-01
    5.700   8.558E-01
    5.800   8.971E-01
    5.900   9.402E-01
    6.000   9.851E-01
    6.100   1.032E+00
    6.200   1.079E+00
    6.300   1.129E+00
    6.400   1.179E+00
    6.500   1.231E+00
    6.600   1.285E+00
    6.700   1.340E+00
    6.800   1.398E+00
    6.900   1.458E+00
    7.000   1.522E+00
    7.100   1.589E+00
    7.200   1.660E+00
    7.300   1.736E+00
    7.400   1.817E+00
    7.500   1.904E+00
    7.600   1.996E+00
    7.700   2.093E+00
    7.800   2.197E+00
    7.900   2.308E+00
    8.000   2.425E+00
    8.100   2.551E+00
    8.200   2.684E+00
    8.300   2.826E+00
    8.400   2.979E+00
    8.500   3.143E+00
    8.600   3.319E+00
    8.700   3.509E+00
    8.800   3.715E+00
    8.900   3.939E+00
    9.000   4.183E+00
    9.100   4.449E+00
    9.200   4.740E+00
    9.300   5.057E+00
    9.400   5.403E+00
    9.500   5.781E+00
    9.600   6.193E+00
    9.700   6.643E+00
    9.800   7.133E+00
    9.900   7.665E+00
   10.000   8.242E+00
   10.100   8.864E+00
   10.200   9.530E+00
   10.300   1.024E+01
   10.400   1.098E+01
   10.500   1.173E+01
   10.600   1.249E+01
   10.700   1.322E+01
   10.800   1.390E+01
   10.900   1.450E+01
   11.000   1.500E+01
   11.100   1.539E+01
   11.200   1.567E+01
   11.300   1.585E+01
   11.400   1.595E+01
   11.500   1.597E+01
   11.600   1.595E+01
   11.700   1.590E+01
   11.800   1.584E+01
   11.900   1.577E+01
   12.000   1.570E+01
   12.100   1.565E+01
   12.200   1.560E+01
   12.300   1.557E+01
   12.400   1.555E+01
   12.500   1.555E+01
   12.600   1.556E+01
   12.700   1.559E+01
   12.800   1.562E+01
   12.900   1.567E+01
   13.000   1.573E+01
   13.100   1.580E+01
   13.200   1.586E+01
   13.300   1.593E+01
   13.400   1.600E+01
   13.500   1.607E+01
   13.600   1.612E+01
   13.700   1.617E+01
   13.800   1.620E+01
   13.900   1.622E+01
   14.000   1.623E+01
   14.100   1.623E+01
   14.200   1.623E+01
   14.300   1.624E+01
   14.400   1.626E+01
   14.500   1.628E+01
   14.600   1.632E+01
   14.700   1.636E+01
   14.800   1.639E+01
   14.900   1.641E+01
   15.000   1.640E+01
   15.100   1.635E+01
   15.200   1.625E+01
   15.300   1.610E+01
   15.400   1.588E+01
   15.500   1.561E+01
   15.600   1.529E+01
   15.700   1.492E+01
   15.800   1.452E+01
   15.900   1.410E+01
   16.000   1.367E+01
   16.100   1.324E+01
   16.200   1.282E+01
   16.300   1.241E+01
   16.400   1.201E+01
   16.500   1.162E+01
   16.600   1.124E+01
   16.700   1.087E+01
   16.800   1.052E+01
   16.900   1.018E+01
   17.000   9.842E+00
   17.100   9.520E+00
   17.200   9.208E+00
   17.300   8.907E+00
   17.400   8.614E+00
   17.500   8.331E+00
   17.600   8.054E+00
   17.700   7.786E+00
   17.800   7.525E+00
   17.900   7.272E+00
   18.000   7.029E+00
   18.100   6.796E+00
   18.200   6.574E+00
   18.300   6.364E+00
   18.400   6.166E+00
   18.500   5.979E+00
   18.600   5.803E+00
   18.700   5.637E+00
   18.800   5.481E+00
   18.900   5.332E+00
   19.000   5.190E+00
   19.100   5.053E+00
   19.200   4.920E+00
   19.300   4.790E+00
   19.400   4.662E+00
   19.500   4.535E+00
   19.600   4.409E+00
   19.700   4.284E+00
   19.800   4.160E+00
   19.900   4.036E+00
   20.000   3.912E+00
   20.100   3.790E+00
   20.200   3.669E+00
   20.300   3.549E+00
   20.400   3.432E+00
   20.500   3.317E+00
   20.600   3.205E+00
   20.700   3.096E+00
   20.800   2.992E+00
   20.900   2.891E+00
   21.000   2.795E+00
   21.100   2.704E+00
   21.200   2.617E+00
   21.300   2.535E+00
   21.400   2.457E+00
   21.500   2.382E+00
   21.600   2.311E+00
   21.700   2.243E+00
   21.800   2.178E+00
   21.900   2.114E+00
   22.000   2.053E+00
   22.100   1.993E+00
   22.200   1.935E+00
   22.300   1.879E+00
   22.400   1.824E+00
   22.500   1.771E+00
   22.600   1.720E+00
   22.700   1.670E+00
   22.800   1.623E+00
   22.900   1.577E+00
   23.000   1.533E+00
   23.100   1.491E+00
   23.200   1.451E+00
   23.300   1.413E+00
   23.400   1.376E+00
   23.500   1.340E+00
   23.600   1.306E+00
   23.700   1.273E+00
   23.800   1.242E+00
   23.900   1.211E+00
   24.000   1.182E+00
   24.100   1.154E+00
   24.200   1.127E+00
   24.300   1.101E+00
   24.400   1.076E+00
   24.500   1.052E+00
   24.600   1.028E+00
   24.700   1.006E+00
   24.800   9.842E-01
   24.900   9.633E-01
   25.000   9.432E-01
   25.100   9.238E-01
   25.200   9.050E-01
   25.300   8.869E-01
   25.400   8.694E-01
   25.500   8.525E-01
   25.600   8.361E-01
   25.700   8.202E-01
   25.800   8.048E-01
   25.900   7.899E-01
   26.000   7.754E-01
   26.100   7.614E-01
   26.200   7.477E-01
   26.300   7.345E-01
   26.400   7.216E-01
   26.500   7.091E-01
   26.600   6.970E-01
   26.700   6.853E-01
   26.800   6.738E-01
   26.900   6.628E-01
   27.000   6.521E-01
   27.100   6.416E-01
   27.200   6.316E-01
   27.300   6.218E-01
   27.400   6.123E-01
   27.500   6.030E-01
   27.600   5.941E-01
   27.700   5.854E-01
   27.800   5.769E-01
   27.900   5.687E-01
   28.000   5.606E-01
   28.100   5.529E-01
   28.200   5.453E-01
   28.300   5.379E-01
   28.400   5.307E-01
   28.500   5.236E-01
   28.600   5.168E-01
   28.700   5.101E-01
   28.800   5.035E-01
   28.900   4.972E-01
   29.000   4.909E-01
   29.100   4.848E-01
   29.200   4.789E-01
   29.300   4.730E-01
   29.400   4.673E-01
   29.500   4.618E-01
   29.600   4.563E-01
   29.700   4.510E-01
   29.800   4.457E-01
   29.900   4.406E-01
   30.000   4.356E-01
 
 Z=  59 A= 151  D1M-QRPA-Inter
 E[MeV]  fQRPA[mb/MeV]
    0.100   3.481E-02
    0.200   4.434E-02
    0.300   4.937E-02
    0.400   5.342E-02
    0.500   5.695E-02
    0.600   6.002E-02
    0.700   6.271E-02
    0.800   6.516E-02
    0.900   6.747E-02
    1.000   6.977E-02
    1.100   7.214E-02
    1.200   7.463E-02
    1.300   7.727E-02
    1.400   8.009E-02
    1.500   8.310E-02
    1.600   8.632E-02
    1.700   8.978E-02
    1.800   9.351E-02
    1.900   9.755E-02
    2.000   1.020E-01
    2.100   1.068E-01
    2.200   1.121E-01
    2.300   1.181E-01
    2.400   1.247E-01
    2.500   1.322E-01
    2.600   1.404E-01
    2.700   1.497E-01
    2.800   1.599E-01
    2.900   1.713E-01
    3.000   1.837E-01
    3.100   1.973E-01
    3.200   2.119E-01
    3.300   2.277E-01
    3.400   2.443E-01
    3.500   2.618E-01
    3.600   2.800E-01
    3.700   2.986E-01
    3.800   3.177E-01
    3.900   3.371E-01
    4.000   3.570E-01
    4.100   3.772E-01
    4.200   3.978E-01
    4.300   4.188E-01
    4.400   4.400E-01
    4.500   4.616E-01
    4.600   4.834E-01
    4.700   5.056E-01
    4.800   5.283E-01
    4.900   5.518E-01
    5.000   5.762E-01
    5.100   6.019E-01
    5.200   6.289E-01
    5.300   6.575E-01
    5.400   6.880E-01
    5.500   7.205E-01
    5.600   7.553E-01
    5.700   7.927E-01
    5.800   8.326E-01
    5.900   8.749E-01
    6.000   9.194E-01
    6.100   9.657E-01
    6.200   1.013E+00
    6.300   1.062E+00
    6.400   1.111E+00
    6.500   1.161E+00
    6.600   1.213E+00
    6.700   1.265E+00
    6.800   1.319E+00
    6.900   1.376E+00
    7.000   1.436E+00
    7.100   1.499E+00
    7.200   1.568E+00
    7.300   1.642E+00
    7.400   1.722E+00
    7.500   1.808E+00
    7.600   1.901E+00
    7.700   2.001E+00
    7.800   2.108E+00
    7.900   2.223E+00
    8.000   2.346E+00
    8.100   2.479E+00
    8.200   2.621E+00
    8.300   2.775E+00
    8.400   2.941E+00
    8.500   3.122E+00
    8.600   3.319E+00
    8.700   3.536E+00
    8.800   3.775E+00
    8.900   4.039E+00
    9.000   4.333E+00
    9.100   4.660E+00
    9.200   5.024E+00
    9.300   5.429E+00
    9.400   5.880E+00
    9.500   6.381E+00
    9.600   6.939E+00
    9.700   7.557E+00
    9.800   8.242E+00
    9.900   8.996E+00
   10.000   9.823E+00
   10.100   1.072E+01
   10.200   1.169E+01
   10.300   1.272E+01
   10.400   1.378E+01
   10.500   1.484E+01
   10.600   1.585E+01
   10.700   1.673E+01
   10.800   1.744E+01
   10.900   1.791E+01
   11.000   1.811E+01
   11.100   1.805E+01
   11.200   1.776E+01
   11.300   1.729E+01
   11.400   1.671E+01
   11.500   1.608E+01
   11.600   1.546E+01
   11.700   1.487E+01
   11.800   1.436E+01
   11.900   1.393E+01
   12.000   1.359E+01
   12.100   1.334E+01
   12.200   1.317E+01
   12.300   1.308E+01
   12.400   1.305E+01
   12.500   1.308E+01
   12.600   1.316E+01
   12.700   1.326E+01
   12.800   1.340E+01
   12.900   1.355E+01
   13.000   1.372E+01
   13.100   1.388E+01
   13.200   1.404E+01
   13.300   1.419E+01
   13.400   1.432E+01
   13.500   1.442E+01
   13.600   1.450E+01
   13.700   1.455E+01
   13.800   1.457E+01
   13.900   1.458E+01
   14.000   1.456E+01
   14.100   1.455E+01
   14.200   1.454E+01
   14.300   1.455E+01
   14.400   1.459E+01
   14.500   1.467E+01
   14.600   1.478E+01
   14.700   1.490E+01
   14.800   1.503E+01
   14.900   1.514E+01
   15.000   1.521E+01
   15.100   1.520E+01
   15.200   1.509E+01
   15.300   1.487E+01
   15.400   1.454E+01
   15.500   1.410E+01
   15.600   1.357E+01
   15.700   1.297E+01
   15.800   1.233E+01
   15.900   1.169E+01
   16.000   1.106E+01
   16.100   1.046E+01
   16.200   9.903E+00
   16.300   9.393E+00
   16.400   8.930E+00
   16.500   8.513E+00
   16.600   8.138E+00
   16.700   7.801E+00
   16.800   7.498E+00
   16.900   7.225E+00
   17.000   6.978E+00
   17.100   6.753E+00
   17.200   6.547E+00
   17.300   6.356E+00
   17.400   6.176E+00
   17.500   6.004E+00
   17.600   5.837E+00
   17.700   5.673E+00
   17.800   5.510E+00
   17.900   5.349E+00
   18.000   5.190E+00
   18.100   5.035E+00
   18.200   4.883E+00
   18.300   4.737E+00
   18.400   4.598E+00
   18.500   4.464E+00
   18.600   4.337E+00
   18.700   4.216E+00
   18.800   4.101E+00
   18.900   3.990E+00
   19.000   3.882E+00
   19.100   3.777E+00
   19.200   3.673E+00
   19.300   3.569E+00
   19.400   3.464E+00
   19.500   3.358E+00
   19.600   3.252E+00
   19.700   3.144E+00
   19.800   3.036E+00
   19.900   2.927E+00
   20.000   2.818E+00
   20.100   2.709E+00
   20.200   2.601E+00
   20.300   2.495E+00
   20.400   2.391E+00
   20.500   2.290E+00
   20.600   2.193E+00
   20.700   2.100E+00
   20.800   2.010E+00
   20.900   1.926E+00
   21.000   1.846E+00
   21.100   1.771E+00
   21.200   1.701E+00
   21.300   1.635E+00
   21.400   1.574E+00
   21.500   1.516E+00
   21.600   1.462E+00
   21.700   1.410E+00
   21.800   1.361E+00
   21.900   1.314E+00
   22.000   1.268E+00
   22.100   1.224E+00
   22.200   1.181E+00
   22.300   1.140E+00
   22.400   1.100E+00
   22.500   1.063E+00
   22.600   1.027E+00
   22.700   9.926E-01
   22.800   9.604E-01
   22.900   9.301E-01
   23.000   9.017E-01
   23.100   8.750E-01
   23.200   8.499E-01
   23.300   8.263E-01
   23.400   8.041E-01
   23.500   7.832E-01
   23.600   7.634E-01
   23.700   7.447E-01
   23.800   7.269E-01
   23.900   7.101E-01
   24.000   6.941E-01
   24.100   6.788E-01
   24.200   6.642E-01
   24.300   6.502E-01
   24.400   6.369E-01
   24.500   6.241E-01
   24.600   6.118E-01
   24.700   5.999E-01
   24.800   5.886E-01
   24.900   5.776E-01
   25.000   5.670E-01
   25.100   5.568E-01
   25.200   5.470E-01
   25.300   5.374E-01
   25.400   5.282E-01
   25.500   5.193E-01
   25.600   5.107E-01
   25.700   5.023E-01
   25.800   4.942E-01
   25.900   4.863E-01
   26.000   4.787E-01
   26.100   4.712E-01
   26.200   4.640E-01
   26.300   4.570E-01
   26.400   4.501E-01
   26.500   4.435E-01
   26.600   4.370E-01
   26.700   4.307E-01
   26.800   4.246E-01
   26.900   4.186E-01
   27.000   4.127E-01
   27.100   4.070E-01
   27.200   4.015E-01
   27.300   3.960E-01
   27.400   3.907E-01
   27.500   3.856E-01
   27.600   3.805E-01
   27.700   3.756E-01
   27.800   3.707E-01
   27.900   3.660E-01
   28.000   3.614E-01
   28.100   3.569E-01
   28.200   3.524E-01
   28.300   3.481E-01
   28.400   3.439E-01
   28.500   3.397E-01
   28.600   3.357E-01
   28.700   3.317E-01
   28.800   3.278E-01
   28.900   3.240E-01
   29.000   3.202E-01
   29.100   3.165E-01
   29.200   3.129E-01
   29.300   3.094E-01
   29.400   3.059E-01
   29.500   3.025E-01
   29.600   2.992E-01
   29.700   2.959E-01
   29.800   2.927E-01
   29.900   2.896E-01
   30.000   2.865E-01
 
 Z=  59 A= 152  D1M-QRPA-Inter
 E[MeV]  fQRPA[mb/MeV]
    0.100   8.839E-03
    0.200   1.924E-02
    0.300   2.888E-02
    0.400   3.759E-02
    0.500   4.529E-02
    0.600   5.198E-02
    0.700   5.777E-02
    0.800   6.282E-02
    0.900   6.730E-02
    1.000   7.139E-02
    1.100   7.525E-02
    1.200   7.899E-02
    1.300   8.271E-02
    1.400   8.648E-02
    1.500   9.034E-02
    1.600   9.434E-02
    1.700   9.852E-02
    1.800   1.029E-01
    1.900   1.076E-01
    2.000   1.126E-01
    2.100   1.180E-01
    2.200   1.238E-01
    2.300   1.300E-01
    2.400   1.368E-01
    2.500   1.442E-01
    2.600   1.524E-01
    2.700   1.612E-01
    2.800   1.709E-01
    2.900   1.815E-01
    3.000   1.930E-01
    3.100   2.055E-01
    3.200   2.191E-01
    3.300   2.337E-01
    3.400   2.495E-01
    3.500   2.664E-01
    3.600   2.843E-01
    3.700   3.033E-01
    3.800   3.233E-01
    3.900   3.444E-01
    4.000   3.666E-01
    4.100   3.899E-01
    4.200   4.143E-01
    4.300   4.397E-01
    4.400   4.660E-01
    4.500   4.932E-01
    4.600   5.210E-01
    4.700   5.496E-01
    4.800   5.787E-01
    4.900   6.084E-01
    5.000   6.386E-01
    5.100   6.695E-01
    5.200   7.011E-01
    5.300   7.336E-01
    5.400   7.672E-01
    5.500   8.021E-01
    5.600   8.388E-01
    5.700   8.777E-01
    5.800   9.188E-01
    5.900   9.625E-01
    6.000   1.009E+00
    6.100   1.057E+00
    6.200   1.108E+00
    6.300   1.161E+00
    6.400   1.216E+00
    6.500   1.274E+00
    6.600   1.334E+00
    6.700   1.397E+00
    6.800   1.463E+00
    6.900   1.532E+00
    7.000   1.604E+00
    7.100   1.680E+00
    7.200   1.760E+00
    7.300   1.845E+00
    7.400   1.934E+00
    7.500   2.028E+00
    7.600   2.129E+00
    7.700   2.235E+00
    7.800   2.347E+00
    7.900   2.467E+00
    8.000   2.594E+00
    8.100   2.730E+00
    8.200   2.877E+00
    8.300   3.034E+00
    8.400   3.204E+00
    8.500   3.388E+00
    8.600   3.587E+00
    8.700   3.805E+00
    8.800   4.043E+00
    8.900   4.305E+00
    9.000   4.594E+00
    9.100   4.912E+00
    9.200   5.264E+00
    9.300   5.654E+00
    9.400   6.085E+00
    9.500   6.564E+00
    9.600   7.095E+00
    9.700   7.684E+00
    9.800   8.336E+00
    9.900   9.057E+00
   10.000   9.850E+00
   10.100   1.072E+01
   10.200   1.166E+01
   10.300   1.268E+01
   10.400   1.376E+01
   10.500   1.487E+01
   10.600   1.600E+01
   10.700   1.710E+01
   10.800   1.811E+01
   10.900   1.901E+01
   11.000   1.973E+01
   11.100   2.025E+01
   11.200   2.055E+01
   11.300   2.063E+01
   11.400   2.051E+01
   11.500   2.024E+01
   11.600   1.986E+01
   11.700   1.941E+01
   11.800   1.893E+01
   11.900   1.847E+01
   12.000   1.805E+01
   12.100   1.769E+01
   12.200   1.741E+01
   12.300   1.721E+01
   12.400   1.708E+01
   12.500   1.704E+01
   12.600   1.706E+01
   12.700   1.715E+01
   12.800   1.728E+01
   12.900   1.746E+01
   13.000   1.767E+01
   13.100   1.789E+01
   13.200   1.811E+01
   13.300   1.833E+01
   13.400   1.853E+01
   13.500   1.870E+01
   13.600   1.883E+01
   13.700   1.892E+01
   13.800   1.896E+01
   13.900   1.897E+01
   14.000   1.895E+01
   14.100   1.892E+01
   14.200   1.888E+01
   14.300   1.884E+01
   14.400   1.882E+01
   14.500   1.881E+01
   14.600   1.881E+01
   14.700   1.878E+01
   14.800   1.873E+01
   14.900   1.862E+01
   15.000   1.845E+01
   15.100   1.820E+01
   15.200   1.786E+01
   15.300   1.745E+01
   15.400   1.696E+01
   15.500   1.641E+01
   15.600   1.583E+01
   15.700   1.521E+01
   15.800   1.460E+01
   15.900   1.399E+01
   16.000   1.339E+01
   16.100   1.283E+01
   16.200   1.229E+01
   16.300   1.178E+01
   16.400   1.131E+01
   16.500   1.086E+01
   16.600   1.044E+01
   16.700   1.004E+01
   16.800   9.653E+00
   16.900   9.283E+00
   17.000   8.923E+00
   17.100   8.570E+00
   17.200   8.221E+00
   17.300   7.878E+00
   17.400   7.540E+00
   17.500   7.207E+00
   17.600   6.883E+00
   17.700   6.568E+00
   17.800   6.265E+00
   17.900   5.975E+00
   18.000   5.700E+00
   18.100   5.440E+00
   18.200   5.196E+00
   18.300   4.968E+00
   18.400   4.755E+00
   18.500   4.557E+00
   18.600   4.372E+00
   18.700   4.200E+00
   18.800   4.040E+00
   18.900   3.890E+00
   19.000   3.748E+00
   19.100   3.615E+00
   19.200   3.487E+00
   19.300   3.366E+00
   19.400   3.249E+00
   19.500   3.136E+00
   19.600   3.027E+00
   19.700   2.921E+00
   19.800   2.818E+00
   19.900   2.719E+00
   20.000   2.622E+00
   20.100   2.528E+00
   20.200   2.437E+00
   20.300   2.349E+00
   20.400   2.264E+00
   20.500   2.182E+00
   20.600   2.104E+00
   20.700   2.029E+00
   20.800   1.957E+00
   20.900   1.889E+00
   21.000   1.824E+00
   21.100   1.763E+00
   21.200   1.705E+00
   21.300   1.650E+00
   21.400   1.599E+00
   21.500   1.550E+00
   21.600   1.503E+00
   21.700   1.459E+00
   21.800   1.417E+00
   21.900   1.376E+00
   22.000   1.336E+00
   22.100   1.298E+00
   22.200   1.261E+00
   22.300   1.226E+00
   22.400   1.192E+00
   22.500   1.159E+00
   22.600   1.127E+00
   22.700   1.097E+00
   22.800   1.068E+00
   22.900   1.041E+00
   23.000   1.015E+00
   23.100   9.901E-01
   23.200   9.666E-01
   23.300   9.442E-01
   23.400   9.228E-01
   23.500   9.024E-01
   23.600   8.829E-01
   23.700   8.643E-01
   23.800   8.464E-01
   23.900   8.293E-01
   24.000   8.128E-01
   24.100   7.970E-01
   24.200   7.818E-01
   24.300   7.671E-01
   24.400   7.530E-01
   24.500   7.393E-01
   24.600   7.262E-01
   24.700   7.134E-01
   24.800   7.011E-01
   24.900   6.891E-01
   25.000   6.776E-01
   25.100   6.663E-01
   25.200   6.554E-01
   25.300   6.449E-01
   25.400   6.346E-01
   25.500   6.246E-01
   25.600   6.150E-01
   25.700   6.055E-01
   25.800   5.964E-01
   25.900   5.874E-01
   26.000   5.787E-01
   26.100   5.703E-01
   26.200   5.620E-01
   26.300   5.540E-01
   26.400   5.461E-01
   26.500   5.385E-01
   26.600   5.310E-01
   26.700   5.237E-01
   26.800   5.166E-01
   26.900   5.097E-01
   27.000   5.029E-01
   27.100   4.962E-01
   27.200   4.897E-01
   27.300   4.834E-01
   27.400   4.772E-01
   27.500   4.711E-01
   27.600   4.652E-01
   27.700   4.594E-01
   27.800   4.537E-01
   27.900   4.481E-01
   28.000   4.427E-01
   28.100   4.373E-01
   28.200   4.321E-01
   28.300   4.270E-01
   28.400   4.219E-01
   28.500   4.170E-01
   28.600   4.122E-01
   28.700   4.074E-01
   28.800   4.028E-01
   28.900   3.982E-01
   29.000   3.938E-01
   29.100   3.894E-01
   29.200   3.851E-01
   29.300   3.808E-01
   29.400   3.767E-01
   29.500   3.726E-01
   29.600   3.686E-01
   29.700   3.647E-01
   29.800   3.608E-01
   29.900   3.570E-01
   30.000   3.533E-01
 
 Z=  59 A= 153  D1M-QRPA-Inter
 E[MeV]  fQRPA[mb/MeV]
    0.100   1.588E-03
    0.200   5.908E-03
    0.300   1.195E-02
    0.400   1.871E-02
    0.500   2.548E-02
    0.600   3.186E-02
    0.700   3.766E-02
    0.800   4.286E-02
    0.900   4.750E-02
    1.000   5.169E-02
    1.100   5.554E-02
    1.200   5.917E-02
    1.300   6.265E-02
    1.400   6.607E-02
    1.500   6.949E-02
    1.600   7.295E-02
    1.700   7.650E-02
    1.800   8.018E-02
    1.900   8.401E-02
    2.000   8.802E-02
    2.100   9.223E-02
    2.200   9.665E-02
    2.300   1.013E-01
    2.400   1.062E-01
    2.500   1.114E-01
    2.600   1.169E-01
    2.700   1.229E-01
    2.800   1.292E-01
    2.900   1.361E-01
    3.000   1.435E-01
    3.100   1.515E-01
    3.200   1.603E-01
    3.300   1.698E-01
    3.400   1.803E-01
    3.500   1.917E-01
    3.600   2.043E-01
    3.700   2.179E-01
    3.800   2.328E-01
    3.900   2.490E-01
    4.000   2.664E-01
    4.100   2.852E-01
    4.200   3.053E-01
    4.300   3.267E-01
    4.400   3.492E-01
    4.500   3.728E-01
    4.600   3.974E-01
    4.700   4.227E-01
    4.800   4.485E-01
    4.900   4.746E-01
    5.000   5.009E-01
    5.100   5.270E-01
    5.200   5.531E-01
    5.300   5.792E-01
    5.400   6.053E-01
    5.500   6.319E-01
    5.600   6.592E-01
    5.700   6.876E-01
    5.800   7.175E-01
    5.900   7.492E-01
    6.000   7.829E-01
    6.100   8.189E-01
    6.200   8.574E-01
    6.300   8.985E-01
    6.400   9.424E-01
    6.500   9.892E-01
    6.600   1.039E+00
    6.700   1.092E+00
    6.800   1.148E+00
    6.900   1.207E+00
    7.000   1.268E+00
    7.100   1.332E+00
    7.200   1.398E+00
    7.300   1.466E+00
    7.400   1.537E+00
    7.500   1.610E+00
    7.600   1.686E+00
    7.700   1.766E+00
    7.800   1.849E+00
    7.900   1.936E+00
    8.000   2.029E+00
    8.100   2.128E+00
    8.200   2.234E+00
    8.300   2.348E+00
    8.400   2.470E+00
    8.500   2.601E+00
    8.600   2.744E+00
    8.700   2.897E+00
    8.800   3.065E+00
    8.900   3.247E+00
    9.000   3.446E+00
    9.100   3.664E+00
    9.200   3.903E+00
    9.300   4.166E+00
    9.400   4.457E+00
    9.500   4.778E+00
    9.600   5.134E+00
    9.700   5.528E+00
    9.800   5.966E+00
    9.900   6.452E+00
   10.000   6.990E+00
   10.100   7.582E+00
   10.200   8.233E+00
   10.300   8.944E+00
   10.400   9.715E+00
   10.500   1.055E+01
   10.600   1.143E+01
   10.700   1.236E+01
   10.800   1.332E+01
   10.900   1.428E+01
   11.000   1.521E+01
   11.100   1.607E+01
   11.200   1.682E+01
   11.300   1.741E+01
   11.400   1.782E+01
   11.500   1.803E+01
   11.600   1.806E+01
   11.700   1.792E+01
   11.800   1.766E+01
   11.900   1.733E+01
   12.000   1.697E+01
   12.100   1.661E+01
   12.200   1.629E+01
   12.300   1.602E+01
   12.400   1.582E+01
   12.500   1.570E+01
   12.600   1.566E+01
   12.700   1.568E+01
   12.800   1.577E+01
   12.900   1.592E+01
   13.000   1.610E+01
   13.100   1.631E+01
   13.200   1.653E+01
   13.300   1.676E+01
   13.400   1.697E+01
   13.500   1.715E+01
   13.600   1.730E+01
   13.700   1.740E+01
   13.800   1.746E+01
   13.900   1.747E+01
   14.000   1.745E+01
   14.100   1.741E+01
   14.200   1.734E+01
   14.300   1.727E+01
   14.400   1.718E+01
   14.500   1.707E+01
   14.600   1.694E+01
   14.700   1.675E+01
   14.800   1.651E+01
   14.900   1.621E+01
   15.000   1.584E+01
   15.100   1.542E+01
   15.200   1.496E+01
   15.300   1.448E+01
   15.400   1.399E+01
   15.500   1.352E+01
   15.600   1.306E+01
   15.700   1.263E+01
   15.800   1.222E+01
   15.900   1.184E+01
   16.000   1.148E+01
   16.100   1.113E+01
   16.200   1.079E+01
   16.300   1.046E+01
   16.400   1.013E+01
   16.500   9.802E+00
   16.600   9.471E+00
   16.700   9.136E+00
   16.800   8.793E+00
   16.900   8.440E+00
   17.000   8.074E+00
   17.100   7.695E+00
   17.200   7.306E+00
   17.300   6.909E+00
   17.400   6.513E+00
   17.500   6.121E+00
   17.600   5.743E+00
   17.700   5.381E+00
   17.800   5.040E+00
   17.900   4.723E+00
   18.000   4.429E+00
   18.100   4.159E+00
   18.200   3.912E+00
   18.300   3.686E+00
   18.400   3.480E+00
   18.500   3.291E+00
   18.600   3.119E+00
   18.700   2.961E+00
   18.800   2.816E+00
   18.900   2.683E+00
   19.000   2.561E+00
   19.100   2.448E+00
   19.200   2.343E+00
   19.300   2.246E+00
   19.400   2.156E+00
   19.500   2.072E+00
   19.600   1.993E+00
   19.700   1.920E+00
   19.800   1.851E+00
   19.900   1.787E+00
   20.000   1.726E+00
   20.100   1.669E+00
   20.200   1.616E+00
   20.300   1.565E+00
   20.400   1.517E+00
   20.500   1.471E+00
   20.600   1.428E+00
   20.700   1.387E+00
   20.800   1.348E+00
   20.900   1.311E+00
   21.000   1.275E+00
   21.100   1.242E+00
   21.200   1.210E+00
   21.300   1.179E+00
   21.400   1.149E+00
   21.500   1.121E+00
   21.600   1.094E+00
   21.700   1.068E+00
   21.800   1.043E+00
   21.900   1.019E+00
   22.000   9.965E-01
   22.100   9.744E-01
   22.200   9.532E-01
   22.300   9.327E-01
   22.400   9.130E-01
   22.500   8.940E-01
   22.600   8.756E-01
   22.700   8.579E-01
   22.800   8.408E-01
   22.900   8.243E-01
   23.000   8.083E-01
   23.100   7.928E-01
   23.200   7.779E-01
   23.300   7.634E-01
   23.400   7.493E-01
   23.500   7.357E-01
   23.600   7.225E-01
   23.700   7.098E-01
   23.800   6.973E-01
   23.900   6.853E-01
   24.000   6.736E-01
   24.100   6.622E-01
   24.200   6.512E-01
   24.300   6.404E-01
   24.400   6.300E-01
   24.500   6.198E-01
   24.600   6.099E-01
   24.700   6.003E-01
   24.800   5.909E-01
   24.900   5.818E-01
   25.000   5.729E-01
   25.100   5.642E-01
   25.200   5.558E-01
   25.300   5.475E-01
   25.400   5.395E-01
   25.500   5.317E-01
   25.600   5.240E-01
   25.700   5.165E-01
   25.800   5.092E-01
   25.900   5.021E-01
   26.000   4.952E-01
   26.100   4.884E-01
   26.200   4.817E-01
   26.300   4.752E-01
   26.400   4.689E-01
   26.500   4.626E-01
   26.600   4.566E-01
   26.700   4.506E-01
   26.800   4.448E-01
   26.900   4.391E-01
   27.000   4.335E-01
   27.100   4.281E-01
   27.200   4.227E-01
   27.300   4.175E-01
   27.400   4.124E-01
   27.500   4.074E-01
   27.600   4.024E-01
   27.700   3.976E-01
   27.800   3.929E-01
   27.900   3.882E-01
   28.000   3.837E-01
   28.100   3.792E-01
   28.200   3.748E-01
   28.300   3.706E-01
   28.400   3.663E-01
   28.500   3.622E-01
   28.600   3.581E-01
   28.700   3.542E-01
   28.800   3.502E-01
   28.900   3.464E-01
   29.000   3.426E-01
   29.100   3.389E-01
   29.200   3.353E-01
   29.300   3.317E-01
   29.400   3.282E-01
   29.500   3.247E-01
   29.600   3.213E-01
   29.700   3.180E-01
   29.800   3.147E-01
   29.900   3.115E-01
   30.000   3.083E-01
 
 Z=  59 A= 154  D1M-QRPA-Inter
 E[MeV]  fQRPA[mb/MeV]
    0.100   2.407E-03
    0.200   8.158E-03
    0.300   1.520E-02
    0.400   2.241E-02
    0.500   2.933E-02
    0.600   3.579E-02
    0.700   4.177E-02
    0.800   4.733E-02
    0.900   5.255E-02
    1.000   5.754E-02
    1.100   6.236E-02
    1.200   6.712E-02
    1.300   7.186E-02
    1.400   7.665E-02
    1.500   8.154E-02
    1.600   8.655E-02
    1.700   9.173E-02
    1.800   9.711E-02
    1.900   1.027E-01
    2.000   1.086E-01
    2.100   1.148E-01
    2.200   1.212E-01
    2.300   1.280E-01
    2.400   1.352E-01
    2.500   1.429E-01
    2.600   1.510E-01
    2.700   1.596E-01
    2.800   1.688E-01
    2.900   1.788E-01
    3.000   1.894E-01
    3.100   2.009E-01
    3.200   2.133E-01
    3.300   2.267E-01
    3.400   2.413E-01
    3.500   2.570E-01
    3.600   2.739E-01
    3.700   2.922E-01
    3.800   3.118E-01
    3.900   3.329E-01
    4.000   3.554E-01
    4.100   3.794E-01
    4.200   4.048E-01
    4.300   4.315E-01
    4.400   4.595E-01
    4.500   4.887E-01
    4.600   5.190E-01
    4.700   5.501E-01
    4.800   5.820E-01
    4.900   6.144E-01
    5.000   6.472E-01
    5.100   6.804E-01
    5.200   7.140E-01
    5.300   7.480E-01
    5.400   7.826E-01
    5.500   8.180E-01
    5.600   8.545E-01
    5.700   8.925E-01
    5.800   9.323E-01
    5.900   9.742E-01
    6.000   1.018E+00
    6.100   1.065E+00
    6.200   1.114E+00
    6.300   1.167E+00
    6.400   1.222E+00
    6.500   1.281E+00
    6.600   1.343E+00
    6.700   1.408E+00
    6.800   1.476E+00
    6.900   1.547E+00
    7.000   1.622E+00
    7.100   1.699E+00
    7.200   1.779E+00
    7.300   1.862E+00
    7.400   1.949E+00
    7.500   2.038E+00
    7.600   2.132E+00
    7.700   2.229E+00
    7.800   2.332E+00
    7.900   2.439E+00
    8.000   2.553E+00
    8.100   2.674E+00
    8.200   2.802E+00
    8.300   2.939E+00
    8.400   3.086E+00
    8.500   3.243E+00
    8.600   3.412E+00
    8.700   3.594E+00
    8.800   3.791E+00
    8.900   4.004E+00
    9.000   4.234E+00
    9.100   4.485E+00
    9.200   4.758E+00
    9.300   5.056E+00
    9.400   5.381E+00
    9.500   5.737E+00
    9.600   6.126E+00
    9.700   6.551E+00
    9.800   7.017E+00
    9.900   7.526E+00
   10.000   8.081E+00
   10.100   8.683E+00
   10.200   9.333E+00
   10.300   1.003E+01
   10.400   1.078E+01
   10.500   1.157E+01
   10.600   1.240E+01
   10.700   1.325E+01
   10.800   1.412E+01
   10.900   1.498E+01
   11.000   1.582E+01
   11.100   1.660E+01
   11.200   1.729E+01
   11.300   1.786E+01
   11.400   1.830E+01
   11.500   1.859E+01
   11.600   1.873E+01
   11.700   1.874E+01
   11.800   1.865E+01
   11.900   1.848E+01
   12.000   1.825E+01
   12.100   1.801E+01
   12.200   1.777E+01
   12.300   1.755E+01
   12.400   1.737E+01
   12.500   1.724E+01
   12.600   1.716E+01
   12.700   1.712E+01
   12.800   1.714E+01
   12.900   1.720E+01
   13.000   1.730E+01
   13.100   1.742E+01
   13.200   1.756E+01
   13.300   1.772E+01
   13.400   1.787E+01
   13.500   1.801E+01
   13.600   1.813E+01
   13.700   1.823E+01
   13.800   1.830E+01
   13.900   1.834E+01
   14.000   1.835E+01
   14.100   1.833E+01
   14.200   1.830E+01
   14.300   1.824E+01
   14.400   1.816E+01
   14.500   1.805E+01
   14.600   1.792E+01
   14.700   1.775E+01
   14.800   1.755E+01
   14.900   1.730E+01
   15.000   1.701E+01
   15.100   1.670E+01
   15.200   1.635E+01
   15.300   1.600E+01
   15.400   1.563E+01
   15.500   1.527E+01
   15.600   1.492E+01
   15.700   1.458E+01
   15.800   1.425E+01
   15.900   1.393E+01
   16.000   1.362E+01
   16.100   1.332E+01
   16.200   1.302E+01
   16.300   1.271E+01
   16.400   1.241E+01
   16.500   1.210E+01
   16.600   1.179E+01
   16.700   1.147E+01
   16.800   1.114E+01
   16.900   1.080E+01
   17.000   1.045E+01
   17.100   1.009E+01
   17.200   9.719E+00
   17.300   9.340E+00
   17.400   8.958E+00
   17.500   8.576E+00
   17.600   8.201E+00
   17.700   7.834E+00
   17.800   7.481E+00
   17.900   7.142E+00
   18.000   6.819E+00
   18.100   6.513E+00
   18.200   6.223E+00
   18.300   5.949E+00
   18.400   5.690E+00
   18.500   5.446E+00
   18.600   5.215E+00
   18.700   4.996E+00
   18.800   4.789E+00
   18.900   4.594E+00
   19.000   4.408E+00
   19.100   4.232E+00
   19.200   4.065E+00
   19.300   3.906E+00
   19.400   3.755E+00
   19.500   3.612E+00
   19.600   3.476E+00
   19.700   3.346E+00
   19.800   3.223E+00
   19.900   3.107E+00
   20.000   2.995E+00
   20.100   2.890E+00
   20.200   2.789E+00
   20.300   2.694E+00
   20.400   2.603E+00
   20.500   2.516E+00
   20.600   2.434E+00
   20.700   2.355E+00
   20.800   2.280E+00
   20.900   2.208E+00
   21.000   2.139E+00
   21.100   2.074E+00
   21.200   2.011E+00
   21.300   1.951E+00
   21.400   1.894E+00
   21.500   1.839E+00
   21.600   1.787E+00
   21.700   1.737E+00
   21.800   1.690E+00
   21.900   1.644E+00
   22.000   1.601E+00
   22.100   1.559E+00
   22.200   1.519E+00
   22.300   1.481E+00
   22.400   1.445E+00
   22.500   1.410E+00
   22.600   1.377E+00
   22.700   1.345E+00
   22.800   1.314E+00
   22.900   1.285E+00
   23.000   1.257E+00
   23.100   1.230E+00
   23.200   1.203E+00
   23.300   1.178E+00
   23.400   1.154E+00
   23.500   1.131E+00
   23.600   1.108E+00
   23.700   1.086E+00
   23.800   1.065E+00
   23.900   1.045E+00
   24.000   1.025E+00
   24.100   1.006E+00
   24.200   9.880E-01
   24.300   9.702E-01
   24.400   9.530E-01
   24.500   9.363E-01
   24.600   9.201E-01
   24.700   9.043E-01
   24.800   8.891E-01
   24.900   8.742E-01
   25.000   8.598E-01
   25.100   8.458E-01
   25.200   8.322E-01
   25.300   8.190E-01
   25.400   8.061E-01
   25.500   7.936E-01
   25.600   7.814E-01
   25.700   7.695E-01
   25.800   7.579E-01
   25.900   7.467E-01
   26.000   7.357E-01
   26.100   7.249E-01
   26.200   7.145E-01
   26.300   7.043E-01
   26.400   6.943E-01
   26.500   6.846E-01
   26.600   6.751E-01
   26.700   6.658E-01
   26.800   6.568E-01
   26.900   6.479E-01
   27.000   6.393E-01
   27.100   6.308E-01
   27.200   6.226E-01
   27.300   6.145E-01
   27.400   6.066E-01
   27.500   5.988E-01
   27.600   5.912E-01
   27.700   5.838E-01
   27.800   5.766E-01
   27.900   5.695E-01
   28.000   5.625E-01
   28.100   5.557E-01
   28.200   5.490E-01
   28.300   5.424E-01
   28.400   5.360E-01
   28.500   5.297E-01
   28.600   5.235E-01
   28.700   5.175E-01
   28.800   5.115E-01
   28.900   5.057E-01
   29.000   5.000E-01
   29.100   4.944E-01
   29.200   4.889E-01
   29.300   4.835E-01
   29.400   4.782E-01
   29.500   4.730E-01
   29.600   4.678E-01
   29.700   4.628E-01
   29.800   4.579E-01
   29.900   4.530E-01
   30.000   4.483E-01
 
 Z=  59 A= 155  D1M-QRPA-Inter
 E[MeV]  fQRPA[mb/MeV]
    0.100   3.227E-03
    0.200   9.969E-03
    0.300   1.710E-02
    0.400   2.376E-02
    0.500   2.988E-02
    0.600   3.558E-02
    0.700   4.100E-02
    0.800   4.626E-02
    0.900   5.146E-02
    1.000   5.667E-02
    1.100   6.197E-02
    1.200   6.738E-02
    1.300   7.295E-02
    1.400   7.870E-02
    1.500   8.467E-02
    1.600   9.087E-02
    1.700   9.733E-02
    1.800   1.041E-01
    1.900   1.112E-01
    2.000   1.186E-01
    2.100   1.264E-01
    2.200   1.346E-01
    2.300   1.432E-01
    2.400   1.524E-01
    2.500   1.621E-01
    2.600   1.725E-01
    2.700   1.835E-01
    2.800   1.953E-01
    2.900   2.079E-01
    3.000   2.213E-01
    3.100   2.358E-01
    3.200   2.513E-01
    3.300   2.679E-01
    3.400   2.857E-01
    3.500   3.048E-01
    3.600   3.251E-01
    3.700   3.467E-01
    3.800   3.696E-01
    3.900   3.939E-01
    4.000   4.196E-01
    4.100   4.466E-01
    4.200   4.749E-01
    4.300   5.044E-01
    4.400   5.352E-01
    4.500   5.670E-01
    4.600   5.998E-01
    4.700   6.336E-01
    4.800   6.683E-01
    4.900   7.039E-01
    5.000   7.402E-01
    5.100   7.775E-01
    5.200   8.157E-01
    5.300   8.549E-01
    5.400   8.953E-01
    5.500   9.371E-01
    5.600   9.804E-01
    5.700   1.025E+00
    5.800   1.072E+00
    5.900   1.121E+00
    6.000   1.172E+00
    6.100   1.226E+00
    6.200   1.282E+00
    6.300   1.341E+00
    6.400   1.403E+00
    6.500   1.468E+00
    6.600   1.535E+00
    6.700   1.606E+00
    6.800   1.679E+00
    6.900   1.756E+00
    7.000   1.836E+00
    7.100   1.918E+00
    7.200   2.004E+00
    7.300   2.094E+00
    7.400   2.187E+00
    7.500   2.284E+00
    7.600   2.385E+00
    7.700   2.491E+00
    7.800   2.602E+00
    7.900   2.719E+00
    8.000   2.842E+00
    8.100   2.972E+00
    8.200   3.110E+00
    8.300   3.257E+00
    8.400   3.412E+00
    8.500   3.578E+00
    8.600   3.756E+00
    8.700   3.946E+00
    8.800   4.150E+00
    8.900   4.369E+00
    9.000   4.605E+00
    9.100   4.859E+00
    9.200   5.134E+00
    9.300   5.430E+00
    9.400   5.750E+00
    9.500   6.096E+00
    9.600   6.469E+00
    9.700   6.871E+00
    9.800   7.304E+00
    9.900   7.770E+00
   10.000   8.268E+00
   10.100   8.800E+00
   10.200   9.364E+00
   10.300   9.959E+00
   10.400   1.058E+01
   10.500   1.123E+01
   10.600   1.190E+01
   10.700   1.257E+01
   10.800   1.325E+01
   10.900   1.392E+01
   11.000   1.456E+01
   11.100   1.517E+01
   11.200   1.572E+01
   11.300   1.621E+01
   11.400   1.662E+01
   11.500   1.695E+01
   11.600   1.720E+01
   11.700   1.735E+01
   11.800   1.743E+01
   11.900   1.743E+01
   12.000   1.738E+01
   12.100   1.729E+01
   12.200   1.716E+01
   12.300   1.702E+01
   12.400   1.688E+01
   12.500   1.675E+01
   12.600   1.664E+01
   12.700   1.655E+01
   12.800   1.648E+01
   12.900   1.645E+01
   13.000   1.645E+01
   13.100   1.647E+01
   13.200   1.651E+01
   13.300   1.657E+01
   13.400   1.665E+01
   13.500   1.673E+01
   13.600   1.682E+01
   13.700   1.690E+01
   13.800   1.698E+01
   13.900   1.704E+01
   14.000   1.707E+01
   14.100   1.709E+01
   14.200   1.708E+01
   14.300   1.704E+01
   14.400   1.698E+01
   14.500   1.689E+01
   14.600   1.678E+01
   14.700   1.665E+01
   14.800   1.650E+01
   14.900   1.634E+01
   15.000   1.617E+01
   15.100   1.600E+01
   15.200   1.582E+01
   15.300   1.564E+01
   15.400   1.546E+01
   15.500   1.527E+01
   15.600   1.508E+01
   15.700   1.490E+01
   15.800   1.470E+01
   15.900   1.451E+01
   16.000   1.431E+01
   16.100   1.410E+01
   16.200   1.389E+01
   16.300   1.368E+01
   16.400   1.345E+01
   16.500   1.322E+01
   16.600   1.299E+01
   16.700   1.274E+01
   16.800   1.249E+01
   16.900   1.224E+01
   17.000   1.197E+01
   17.100   1.171E+01
   17.200   1.144E+01
   17.300   1.117E+01
   17.400   1.090E+01
   17.500   1.063E+01
   17.600   1.036E+01
   17.700   1.009E+01
   17.800   9.826E+00
   17.900   9.558E+00
   18.000   9.291E+00
   18.100   9.025E+00
   18.200   8.761E+00
   18.300   8.497E+00
   18.400   8.236E+00
   18.500   7.975E+00
   18.600   7.717E+00
   18.700   7.461E+00
   18.800   7.209E+00
   18.900   6.959E+00
   19.000   6.715E+00
   19.100   6.475E+00
   19.200   6.240E+00
   19.300   6.011E+00
   19.400   5.789E+00
   19.500   5.573E+00
   19.600   5.364E+00
   19.700   5.162E+00
   19.800   4.967E+00
   19.900   4.779E+00
   20.000   4.600E+00
   20.100   4.427E+00
   20.200   4.262E+00
   20.300   4.104E+00
   20.400   3.953E+00
   20.500   3.809E+00
   20.600   3.670E+00
   20.700   3.538E+00
   20.800   3.412E+00
   20.900   3.291E+00
   21.000   3.175E+00
   21.100   3.065E+00
   21.200   2.959E+00
   21.300   2.858E+00
   21.400   2.762E+00
   21.500   2.671E+00
   21.600   2.583E+00
   21.700   2.500E+00
   21.800   2.421E+00
   21.900   2.347E+00
   22.000   2.275E+00
   22.100   2.208E+00
   22.200   2.143E+00
   22.300   2.082E+00
   22.400   2.024E+00
   22.500   1.969E+00
   22.600   1.916E+00
   22.700   1.866E+00
   22.800   1.819E+00
   22.900   1.773E+00
   23.000   1.729E+00
   23.100   1.688E+00
   23.200   1.648E+00
   23.300   1.610E+00
   23.400   1.573E+00
   23.500   1.538E+00
   23.600   1.504E+00
   23.700   1.472E+00
   23.800   1.440E+00
   23.900   1.410E+00
   24.000   1.382E+00
   24.100   1.354E+00
   24.200   1.327E+00
   24.300   1.301E+00
   24.400   1.276E+00
   24.500   1.252E+00
   24.600   1.228E+00
   24.700   1.206E+00
   24.800   1.184E+00
   24.900   1.163E+00
   25.000   1.142E+00
   25.100   1.122E+00
   25.200   1.103E+00
   25.300   1.084E+00
   25.400   1.066E+00
   25.500   1.048E+00
   25.600   1.031E+00
   25.700   1.015E+00
   25.800   9.984E-01
   25.900   9.826E-01
   26.000   9.673E-01
   26.100   9.524E-01
   26.200   9.379E-01
   26.300   9.238E-01
   26.400   9.100E-01
   26.500   8.966E-01
   26.600   8.835E-01
   26.700   8.707E-01
   26.800   8.583E-01
   26.900   8.461E-01
   27.000   8.343E-01
   27.100   8.227E-01
   27.200   8.114E-01
   27.300   8.004E-01
   27.400   7.896E-01
   27.500   7.791E-01
   27.600   7.688E-01
   27.700   7.587E-01
   27.800   7.488E-01
   27.900   7.392E-01
   28.000   7.298E-01
   28.100   7.206E-01
   28.200   7.116E-01
   28.300   7.027E-01
   28.400   6.941E-01
   28.500   6.856E-01
   28.600   6.773E-01
   28.700   6.692E-01
   28.800   6.612E-01
   28.900   6.534E-01
   29.000   6.457E-01
   29.100   6.382E-01
   29.200   6.309E-01
   29.300   6.236E-01
   29.400   6.166E-01
   29.500   6.096E-01
   29.600   6.028E-01
   29.700   5.961E-01
   29.800   5.895E-01
   29.900   5.831E-01
   30.000   5.768E-01
 
