 Z=  60 A= 142  D1M-QRPA
   E[MeV]   fQRPA[mb/MeV]
    0.100   7.737E-05
    0.200   3.096E-04
    0.300   6.969E-04
    0.400   1.240E-03
    0.500   1.939E-03
    0.600   2.795E-03
    0.700   3.808E-03
    0.800   4.981E-03
    0.900   6.315E-03
    1.000   7.810E-03
    1.100   9.469E-03
    1.200   1.129E-02
    1.300   1.329E-02
    1.400   1.545E-02
    1.500   1.778E-02
    1.600   2.029E-02
    1.700   2.298E-02
    1.800   2.585E-02
    1.900   2.890E-02
    2.000   3.215E-02
    2.100   3.558E-02
    2.200   3.921E-02
    2.300   4.304E-02
    2.400   4.708E-02
    2.500   5.133E-02
    2.600   5.580E-02
    2.700   6.048E-02
    2.800   6.540E-02
    2.900   7.055E-02
    3.000   7.594E-02
    3.100   8.157E-02
    3.200   8.747E-02
    3.300   9.362E-02
    3.400   1.001E-01
    3.500   1.068E-01
    3.600   1.138E-01
    3.700   1.211E-01
    3.800   1.287E-01
    3.900   1.366E-01
    4.000   1.449E-01
    4.100   1.535E-01
    4.200   1.624E-01
    4.300   1.718E-01
    4.400   1.815E-01
    4.500   1.916E-01
    4.600   2.021E-01
    4.700   2.131E-01
    4.800   2.245E-01
    4.900   2.364E-01
    5.000   2.488E-01
    5.100   2.617E-01
    5.200   2.752E-01
    5.300   2.892E-01
    5.400   3.038E-01
    5.500   3.190E-01
    5.600   3.348E-01
    5.700   3.513E-01
    5.800   3.686E-01
    5.900   3.865E-01
    6.000   4.053E-01
    6.100   4.248E-01
    6.200   4.453E-01
    6.300   4.666E-01
    6.400   4.889E-01
    6.500   5.122E-01
    6.600   5.365E-01
    6.700   5.619E-01
    6.800   5.886E-01
    6.900   6.165E-01
    7.000   6.457E-01
    7.100   6.762E-01
    7.200   7.083E-01
    7.300   7.419E-01
    7.400   7.772E-01
    7.500   8.143E-01
    7.600   8.532E-01
    7.700   8.940E-01
    7.800   9.370E-01
    7.900   9.822E-01
    8.000   1.030E+00
    8.100   1.080E+00
    8.200   1.133E+00
    8.300   1.188E+00
    8.400   1.247E+00
    8.500   1.309E+00
    8.600   1.374E+00
    8.700   1.443E+00
    8.800   1.515E+00
    8.900   1.592E+00
    9.000   1.673E+00
    9.100   1.758E+00
    9.200   1.848E+00
    9.300   1.943E+00
    9.400   2.043E+00
    9.500   2.148E+00
    9.600   2.259E+00
    9.700   2.376E+00
    9.800   2.499E+00
    9.900   2.628E+00
   10.000   2.763E+00
   10.100   2.905E+00
   10.200   3.054E+00
   10.300   3.211E+00
   10.400   3.374E+00
   10.500   3.544E+00
   10.600   3.723E+00
   10.700   3.909E+00
   10.800   4.104E+00
   10.900   4.308E+00
   11.000   4.520E+00
   11.100   4.743E+00
   11.200   4.976E+00
   11.300   5.220E+00
   11.400   5.476E+00
   11.500   5.745E+00
   11.600   6.027E+00
   11.700   6.324E+00
   11.800   6.636E+00
   11.900   6.964E+00
   12.000   7.310E+00
   12.100   7.673E+00
   12.200   8.056E+00
   12.300   8.460E+00
   12.400   8.884E+00
   12.500   9.330E+00
   12.600   9.800E+00
   12.700   1.029E+01
   12.800   1.081E+01
   12.900   1.136E+01
   13.000   1.192E+01
   13.100   1.252E+01
   13.200   1.314E+01
   13.300   1.379E+01
   13.400   1.446E+01
   13.500   1.514E+01
   13.600   1.585E+01
   13.700   1.656E+01
   13.800   1.729E+01
   13.900   1.800E+01
   14.000   1.871E+01
   14.100   1.941E+01
   14.200   2.007E+01
   14.300   2.071E+01
   14.400   2.129E+01
   14.500   2.183E+01
   14.600   2.230E+01
   14.700   2.271E+01
   14.800   2.305E+01
   14.900   2.331E+01
   15.000   2.350E+01
   15.100   2.360E+01
   15.200   2.363E+01
   15.300   2.358E+01
   15.400   2.345E+01
   15.500   2.325E+01
   15.600   2.298E+01
   15.700   2.264E+01
   15.800   2.224E+01
   15.900   2.178E+01
   16.000   2.127E+01
   16.100   2.072E+01
   16.200   2.013E+01
   16.300   1.951E+01
   16.400   1.888E+01
   16.500   1.823E+01
   16.600   1.757E+01
   16.700   1.692E+01
   16.800   1.628E+01
   16.900   1.564E+01
   17.000   1.502E+01
   17.100   1.442E+01
   17.200   1.385E+01
   17.300   1.329E+01
   17.400   1.275E+01
   17.500   1.224E+01
   17.600   1.175E+01
   17.700   1.128E+01
   17.800   1.083E+01
   17.900   1.040E+01
   18.000   9.987E+00
   18.100   9.592E+00
   18.200   9.214E+00
   18.300   8.851E+00
   18.400   8.504E+00
   18.500   8.171E+00
   18.600   7.853E+00
   18.700   7.548E+00
   18.800   7.257E+00
   18.900   6.978E+00
   19.000   6.713E+00
   19.100   6.459E+00
   19.200   6.217E+00
   19.300   5.987E+00
   19.400   5.768E+00
   19.500   5.560E+00
   19.600   5.361E+00
   19.700   5.173E+00
   19.800   4.993E+00
   19.900   4.823E+00
   20.000   4.660E+00
   20.100   4.506E+00
   20.200   4.359E+00
   20.300   4.219E+00
   20.400   4.086E+00
   20.500   3.960E+00
   20.600   3.839E+00
   20.700   3.724E+00
   20.800   3.614E+00
   20.900   3.509E+00
   21.000   3.408E+00
   21.100   3.313E+00
   21.200   3.221E+00
   21.300   3.133E+00
   21.400   3.049E+00
   21.500   2.969E+00
   21.600   2.892E+00
   21.700   2.818E+00
   21.800   2.747E+00
   21.900   2.679E+00
   22.000   2.613E+00
   22.100   2.550E+00
   22.200   2.490E+00
   22.300   2.432E+00
   22.400   2.376E+00
   22.500   2.322E+00
   22.600   2.269E+00
   22.700   2.219E+00
   22.800   2.171E+00
   22.900   2.124E+00
   23.000   2.079E+00
   23.100   2.035E+00
   23.200   1.993E+00
   23.300   1.952E+00
   23.400   1.913E+00
   23.500   1.875E+00
   23.600   1.838E+00
   23.700   1.802E+00
   23.800   1.767E+00
   23.900   1.734E+00
   24.000   1.701E+00
   24.100   1.670E+00
   24.200   1.639E+00
   24.300   1.609E+00
   24.400   1.581E+00
   24.500   1.552E+00
   24.600   1.525E+00
   24.700   1.499E+00
   24.800   1.473E+00
   24.900   1.448E+00
   25.000   1.424E+00
   25.100   1.400E+00
   25.200   1.377E+00
   25.300   1.355E+00
   25.400   1.333E+00
   25.500   1.311E+00
   25.600   1.291E+00
   25.700   1.270E+00
   25.800   1.251E+00
   25.900   1.232E+00
   26.000   1.213E+00
   26.100   1.195E+00
   26.200   1.177E+00
   26.300   1.159E+00
   26.400   1.142E+00
   26.500   1.126E+00
   26.600   1.110E+00
   26.700   1.094E+00
   26.800   1.078E+00
   26.900   1.063E+00
   27.000   1.048E+00
   27.100   1.034E+00
   27.200   1.020E+00
   27.300   1.006E+00
   27.400   9.926E-01
   27.500   9.794E-01
   27.600   9.665E-01
   27.700   9.538E-01
   27.800   9.415E-01
   27.900   9.293E-01
   28.000   9.175E-01
   28.100   9.058E-01
   28.200   8.944E-01
   28.300   8.833E-01
   28.400   8.724E-01
   28.500   8.616E-01
   28.600   8.511E-01
   28.700   8.408E-01
   28.800   8.307E-01
   28.900   8.208E-01
   29.000   8.111E-01
   29.100   8.016E-01
   29.200   7.922E-01
   29.300   7.831E-01
   29.400   7.741E-01
   29.500   7.652E-01
   29.600   7.566E-01
   29.700   7.481E-01
   29.800   7.397E-01
   29.900   7.315E-01
   30.000   7.234E-01
 
 Z=  60 A= 143  D1M-QRPA-Inter
 E[MeV]  fQRPA[mb/MeV]
    0.100   9.138E-05
    0.200   3.656E-04
    0.300   8.230E-04
    0.400   1.464E-03
    0.500   2.290E-03
    0.600   3.301E-03
    0.700   4.498E-03
    0.800   5.884E-03
    0.900   7.460E-03
    1.000   9.226E-03
    1.100   1.119E-02
    1.200   1.334E-02
    1.300   1.570E-02
    1.400   1.826E-02
    1.500   2.102E-02
    1.600   2.398E-02
    1.700   2.717E-02
    1.800   3.056E-02
    1.900   3.418E-02
    2.000   3.802E-02
    2.100   4.208E-02
    2.200   4.639E-02
    2.300   5.093E-02
    2.400   5.571E-02
    2.500   6.075E-02
    2.600   6.605E-02
    2.700   7.161E-02
    2.800   7.744E-02
    2.900   8.356E-02
    3.000   8.996E-02
    3.100   9.666E-02
    3.200   1.037E-01
    3.300   1.110E-01
    3.400   1.186E-01
    3.500   1.266E-01
    3.600   1.350E-01
    3.700   1.437E-01
    3.800   1.527E-01
    3.900   1.622E-01
    4.000   1.720E-01
    4.100   1.823E-01
    4.200   1.930E-01
    4.300   2.042E-01
    4.400   2.158E-01
    4.500   2.279E-01
    4.600   2.406E-01
    4.700   2.537E-01
    4.800   2.674E-01
    4.900   2.817E-01
    5.000   2.966E-01
    5.100   3.121E-01
    5.200   3.283E-01
    5.300   3.451E-01
    5.400   3.627E-01
    5.500   3.810E-01
    5.600   4.002E-01
    5.700   4.201E-01
    5.800   4.409E-01
    5.900   4.627E-01
    6.000   4.853E-01
    6.100   5.090E-01
    6.200   5.338E-01
    6.300   5.596E-01
    6.400   5.867E-01
    6.500   6.150E-01
    6.600   6.445E-01
    6.700   6.755E-01
    6.800   7.079E-01
    6.900   7.419E-01
    7.000   7.774E-01
    7.100   8.147E-01
    7.200   8.538E-01
    7.300   8.948E-01
    7.400   9.378E-01
    7.500   9.830E-01
    7.600   1.030E+00
    7.700   1.080E+00
    7.800   1.133E+00
    7.900   1.188E+00
    8.000   1.246E+00
    8.100   1.306E+00
    8.200   1.371E+00
    8.300   1.438E+00
    8.400   1.509E+00
    8.500   1.584E+00
    8.600   1.662E+00
    8.700   1.745E+00
    8.800   1.832E+00
    8.900   1.924E+00
    9.000   2.020E+00
    9.100   2.122E+00
    9.200   2.228E+00
    9.300   2.340E+00
    9.400   2.458E+00
    9.500   2.581E+00
    9.600   2.710E+00
    9.700   2.846E+00
    9.800   2.987E+00
    9.900   3.136E+00
   10.000   3.291E+00
   10.100   3.453E+00
   10.200   3.623E+00
   10.300   3.800E+00
   10.400   3.984E+00
   10.500   4.177E+00
   10.600   4.378E+00
   10.700   4.588E+00
   10.800   4.807E+00
   10.900   5.036E+00
   11.000   5.274E+00
   11.100   5.524E+00
   11.200   5.785E+00
   11.300   6.058E+00
   11.400   6.344E+00
   11.500   6.644E+00
   11.600   6.957E+00
   11.700   7.286E+00
   11.800   7.631E+00
   11.900   7.992E+00
   12.000   8.371E+00
   12.100   8.768E+00
   12.200   9.183E+00
   12.300   9.618E+00
   12.400   1.007E+01
   12.500   1.055E+01
   12.600   1.104E+01
   12.700   1.156E+01
   12.800   1.209E+01
   12.900   1.265E+01
   13.000   1.322E+01
   13.100   1.381E+01
   13.200   1.442E+01
   13.300   1.504E+01
   13.400   1.567E+01
   13.500   1.630E+01
   13.600   1.693E+01
   13.700   1.756E+01
   13.800   1.818E+01
   13.900   1.878E+01
   14.000   1.936E+01
   14.100   1.990E+01
   14.200   2.041E+01
   14.300   2.087E+01
   14.400   2.128E+01
   14.500   2.164E+01
   14.600   2.194E+01
   14.700   2.217E+01
   14.800   2.235E+01
   14.900   2.245E+01
   15.000   2.249E+01
   15.100   2.246E+01
   15.200   2.237E+01
   15.300   2.221E+01
   15.400   2.199E+01
   15.500   2.172E+01
   15.600   2.139E+01
   15.700   2.101E+01
   15.800   2.059E+01
   15.900   2.012E+01
   16.000   1.962E+01
   16.100   1.910E+01
   16.200   1.854E+01
   16.300   1.797E+01
   16.400   1.739E+01
   16.500   1.681E+01
   16.600   1.622E+01
   16.700   1.564E+01
   16.800   1.506E+01
   16.900   1.449E+01
   17.000   1.394E+01
   17.100   1.341E+01
   17.200   1.289E+01
   17.300   1.239E+01
   17.400   1.191E+01
   17.500   1.144E+01
   17.600   1.100E+01
   17.700   1.057E+01
   17.800   1.016E+01
   17.900   9.769E+00
   18.000   9.395E+00
   18.100   9.036E+00
   18.200   8.693E+00
   18.300   8.365E+00
   18.400   8.051E+00
   18.500   7.751E+00
   18.600   7.464E+00
   18.700   7.190E+00
   18.800   6.929E+00
   18.900   6.679E+00
   19.000   6.441E+00
   19.100   6.214E+00
   19.200   5.998E+00
   19.300   5.791E+00
   19.400   5.594E+00
   19.500   5.407E+00
   19.600   5.228E+00
   19.700   5.057E+00
   19.800   4.895E+00
   19.900   4.740E+00
   20.000   4.592E+00
   20.100   4.451E+00
   20.200   4.316E+00
   20.300   4.188E+00
   20.400   4.065E+00
   20.500   3.948E+00
   20.600   3.836E+00
   20.700   3.728E+00
   20.800   3.626E+00
   20.900   3.527E+00
   21.000   3.433E+00
   21.100   3.343E+00
   21.200   3.256E+00
   21.300   3.173E+00
   21.400   3.093E+00
   21.500   3.016E+00
   21.600   2.943E+00
   21.700   2.872E+00
   21.800   2.804E+00
   21.900   2.738E+00
   22.000   2.675E+00
   22.100   2.614E+00
   22.200   2.555E+00
   22.300   2.498E+00
   22.400   2.444E+00
   22.500   2.391E+00
   22.600   2.340E+00
   22.700   2.291E+00
   22.800   2.243E+00
   22.900   2.197E+00
   23.000   2.153E+00
   23.100   2.110E+00
   23.200   2.068E+00
   23.300   2.028E+00
   23.400   1.988E+00
   23.500   1.951E+00
   23.600   1.914E+00
   23.700   1.878E+00
   23.800   1.843E+00
   23.900   1.810E+00
   24.000   1.777E+00
   24.100   1.746E+00
   24.200   1.715E+00
   24.300   1.685E+00
   24.400   1.656E+00
   24.500   1.628E+00
   24.600   1.600E+00
   24.700   1.573E+00
   24.800   1.547E+00
   24.900   1.522E+00
   25.000   1.497E+00
   25.100   1.473E+00
   25.200   1.450E+00
   25.300   1.427E+00
   25.400   1.405E+00
   25.500   1.383E+00
   25.600   1.362E+00
   25.700   1.342E+00
   25.800   1.321E+00
   25.900   1.302E+00
   26.000   1.283E+00
   26.100   1.264E+00
   26.200   1.246E+00
   26.300   1.228E+00
   26.400   1.210E+00
   26.500   1.193E+00
   26.600   1.177E+00
   26.700   1.160E+00
   26.800   1.144E+00
   26.900   1.129E+00
   27.000   1.114E+00
   27.100   1.099E+00
   27.200   1.084E+00
   27.300   1.070E+00
   27.400   1.056E+00
   27.500   1.042E+00
   27.600   1.029E+00
   27.700   1.016E+00
   27.800   1.003E+00
   27.900   9.904E-01
   28.000   9.781E-01
   28.100   9.660E-01
   28.200   9.542E-01
   28.300   9.426E-01
   28.400   9.312E-01
   28.500   9.200E-01
   28.600   9.091E-01
   28.700   8.983E-01
   28.800   8.878E-01
   28.900   8.775E-01
   29.000   8.673E-01
   29.100   8.574E-01
   29.200   8.476E-01
   29.300   8.380E-01
   29.400   8.286E-01
   29.500   8.194E-01
   29.600   8.103E-01
   29.700   8.014E-01
   29.800   7.926E-01
   29.900   7.840E-01
   30.000   7.756E-01
 
 Z=  60 A= 144  D1M-QRPA
   E[MeV]   fQRPA[mb/MeV]
    0.100   1.073E-04
    0.200   4.293E-04
    0.300   9.663E-04
    0.400   1.719E-03
    0.500   2.689E-03
    0.600   3.876E-03
    0.700   5.283E-03
    0.800   6.910E-03
    0.900   8.761E-03
    1.000   1.084E-02
    1.100   1.314E-02
    1.200   1.567E-02
    1.300   1.844E-02
    1.400   2.145E-02
    1.500   2.469E-02
    1.600   2.818E-02
    1.700   3.193E-02
    1.800   3.592E-02
    1.900   4.017E-02
    2.000   4.469E-02
    2.100   4.948E-02
    2.200   5.455E-02
    2.300   5.990E-02
    2.400   6.554E-02
    2.500   7.148E-02
    2.600   7.772E-02
    2.700   8.428E-02
    2.800   9.117E-02
    2.900   9.839E-02
    3.000   1.059E-01
    3.100   1.139E-01
    3.200   1.221E-01
    3.300   1.308E-01
    3.400   1.398E-01
    3.500   1.493E-01
    3.600   1.592E-01
    3.700   1.695E-01
    3.800   1.802E-01
    3.900   1.914E-01
    4.000   2.031E-01
    4.100   2.153E-01
    4.200   2.281E-01
    4.300   2.413E-01
    4.400   2.552E-01
    4.500   2.696E-01
    4.600   2.846E-01
    4.700   3.003E-01
    4.800   3.167E-01
    4.900   3.337E-01
    5.000   3.515E-01
    5.100   3.700E-01
    5.200   3.893E-01
    5.300   4.095E-01
    5.400   4.306E-01
    5.500   4.525E-01
    5.600   4.755E-01
    5.700   4.994E-01
    5.800   5.244E-01
    5.900   5.505E-01
    6.000   5.778E-01
    6.100   6.063E-01
    6.200   6.361E-01
    6.300   6.673E-01
    6.400   7.000E-01
    6.500   7.341E-01
    6.600   7.698E-01
    6.700   8.073E-01
    6.800   8.465E-01
    6.900   8.875E-01
    7.000   9.306E-01
    7.100   9.757E-01
    7.200   1.023E+00
    7.300   1.073E+00
    7.400   1.125E+00
    7.500   1.180E+00
    7.600   1.237E+00
    7.700   1.298E+00
    7.800   1.361E+00
    7.900   1.428E+00
    8.000   1.498E+00
    8.100   1.571E+00
    8.200   1.649E+00
    8.300   1.730E+00
    8.400   1.815E+00
    8.500   1.905E+00
    8.600   2.000E+00
    8.700   2.099E+00
    8.800   2.203E+00
    8.900   2.312E+00
    9.000   2.426E+00
    9.100   2.546E+00
    9.200   2.671E+00
    9.300   2.802E+00
    9.400   2.940E+00
    9.500   3.083E+00
    9.600   3.232E+00
    9.700   3.388E+00
    9.800   3.551E+00
    9.900   3.720E+00
   10.000   3.897E+00
   10.100   4.080E+00
   10.200   4.272E+00
   10.300   4.471E+00
   10.400   4.678E+00
   10.500   4.894E+00
   10.600   5.118E+00
   10.700   5.353E+00
   10.800   5.597E+00
   10.900   5.852E+00
   11.000   6.118E+00
   11.100   6.396E+00
   11.200   6.686E+00
   11.300   6.990E+00
   11.400   7.307E+00
   11.500   7.638E+00
   11.600   7.984E+00
   11.700   8.346E+00
   11.800   8.724E+00
   11.900   9.119E+00
   12.000   9.530E+00
   12.100   9.959E+00
   12.200   1.041E+01
   12.300   1.087E+01
   12.400   1.135E+01
   12.500   1.185E+01
   12.600   1.237E+01
   12.700   1.290E+01
   12.800   1.345E+01
   12.900   1.401E+01
   13.000   1.458E+01
   13.100   1.515E+01
   13.200   1.573E+01
   13.300   1.631E+01
   13.400   1.688E+01
   13.500   1.744E+01
   13.600   1.799E+01
   13.700   1.851E+01
   13.800   1.901E+01
   13.900   1.948E+01
   14.000   1.991E+01
   14.100   2.029E+01
   14.200   2.063E+01
   14.300   2.092E+01
   14.400   2.115E+01
   14.500   2.133E+01
   14.600   2.145E+01
   14.700   2.152E+01
   14.800   2.153E+01
   14.900   2.149E+01
   15.000   2.139E+01
   15.100   2.125E+01
   15.200   2.105E+01
   15.300   2.080E+01
   15.400   2.051E+01
   15.500   2.017E+01
   15.600   1.980E+01
   15.700   1.939E+01
   15.800   1.895E+01
   15.900   1.849E+01
   16.000   1.800E+01
   16.100   1.750E+01
   16.200   1.698E+01
   16.300   1.646E+01
   16.400   1.593E+01
   16.500   1.541E+01
   16.600   1.488E+01
   16.700   1.436E+01
   16.800   1.385E+01
   16.900   1.335E+01
   17.000   1.286E+01
   17.100   1.239E+01
   17.200   1.193E+01
   17.300   1.148E+01
   17.400   1.105E+01
   17.500   1.063E+01
   17.600   1.023E+01
   17.700   9.846E+00
   17.800   9.477E+00
   17.900   9.124E+00
   18.000   8.786E+00
   18.100   8.462E+00
   18.200   8.154E+00
   18.300   7.859E+00
   18.400   7.578E+00
   18.500   7.309E+00
   18.600   7.054E+00
   18.700   6.810E+00
   18.800   6.577E+00
   18.900   6.356E+00
   19.000   6.145E+00
   19.100   5.944E+00
   19.200   5.752E+00
   19.300   5.568E+00
   19.400   5.394E+00
   19.500   5.227E+00
   19.600   5.068E+00
   19.700   4.915E+00
   19.800   4.770E+00
   19.900   4.631E+00
   20.000   4.498E+00
   20.100   4.371E+00
   20.200   4.249E+00
   20.300   4.132E+00
   20.400   4.020E+00
   20.500   3.913E+00
   20.600   3.810E+00
   20.700   3.711E+00
   20.800   3.616E+00
   20.900   3.525E+00
   21.000   3.437E+00
   21.100   3.353E+00
   21.200   3.272E+00
   21.300   3.194E+00
   21.400   3.119E+00
   21.500   3.047E+00
   21.600   2.977E+00
   21.700   2.909E+00
   21.800   2.845E+00
   21.900   2.782E+00
   22.000   2.721E+00
   22.100   2.663E+00
   22.200   2.607E+00
   22.300   2.552E+00
   22.400   2.499E+00
   22.500   2.448E+00
   22.600   2.399E+00
   22.700   2.351E+00
   22.800   2.305E+00
   22.900   2.260E+00
   23.000   2.216E+00
   23.100   2.174E+00
   23.200   2.133E+00
   23.300   2.093E+00
   23.400   2.055E+00
   23.500   2.017E+00
   23.600   1.981E+00
   23.700   1.946E+00
   23.800   1.912E+00
   23.900   1.878E+00
   24.000   1.846E+00
   24.100   1.814E+00
   24.200   1.784E+00
   24.300   1.754E+00
   24.400   1.725E+00
   24.500   1.697E+00
   24.600   1.669E+00
   24.700   1.642E+00
   24.800   1.616E+00
   24.900   1.591E+00
   25.000   1.566E+00
   25.100   1.542E+00
   25.200   1.518E+00
   25.300   1.495E+00
   25.400   1.473E+00
   25.500   1.451E+00
   25.600   1.429E+00
   25.700   1.408E+00
   25.800   1.388E+00
   25.900   1.368E+00
   26.000   1.348E+00
   26.100   1.329E+00
   26.200   1.311E+00
   26.300   1.293E+00
   26.400   1.275E+00
   26.500   1.257E+00
   26.600   1.240E+00
   26.700   1.224E+00
   26.800   1.208E+00
   26.900   1.192E+00
   27.000   1.176E+00
   27.100   1.161E+00
   27.200   1.146E+00
   27.300   1.131E+00
   27.400   1.117E+00
   27.500   1.103E+00
   27.600   1.089E+00
   27.700   1.075E+00
   27.800   1.062E+00
   27.900   1.049E+00
   28.000   1.037E+00
   28.100   1.024E+00
   28.200   1.012E+00
   28.300   9.999E-01
   28.400   9.881E-01
   28.500   9.766E-01
   28.600   9.653E-01
   28.700   9.542E-01
   28.800   9.433E-01
   28.900   9.325E-01
   29.000   9.220E-01
   29.100   9.117E-01
   29.200   9.016E-01
   29.300   8.916E-01
   29.400   8.818E-01
   29.500   8.722E-01
   29.600   8.628E-01
   29.700   8.535E-01
   29.800   8.444E-01
   29.900   8.354E-01
   30.000   8.266E-01
 
 Z=  60 A= 145  D1M-QRPA-Inter
 E[MeV]  fQRPA[mb/MeV]
    0.100   1.339E-04
    0.200   5.359E-04
    0.300   1.206E-03
    0.400   2.146E-03
    0.500   3.356E-03
    0.600   4.837E-03
    0.700   6.591E-03
    0.800   8.619E-03
    0.900   1.092E-02
    1.000   1.351E-02
    1.100   1.637E-02
    1.200   1.952E-02
    1.300   2.296E-02
    1.400   2.668E-02
    1.500   3.070E-02
    1.600   3.501E-02
    1.700   3.963E-02
    1.800   4.454E-02
    1.900   4.977E-02
    2.000   5.530E-02
    2.100   6.116E-02
    2.200   6.734E-02
    2.300   7.385E-02
    2.400   8.069E-02
    2.500   8.788E-02
    2.600   9.542E-02
    2.700   1.033E-01
    2.800   1.116E-01
    2.900   1.203E-01
    3.000   1.293E-01
    3.100   1.388E-01
    3.200   1.487E-01
    3.300   1.590E-01
    3.400   1.697E-01
    3.500   1.810E-01
    3.600   1.927E-01
    3.700   2.049E-01
    3.800   2.176E-01
    3.900   2.309E-01
    4.000   2.447E-01
    4.100   2.592E-01
    4.200   2.742E-01
    4.300   2.899E-01
    4.400   3.062E-01
    4.500   3.232E-01
    4.600   3.409E-01
    4.700   3.594E-01
    4.800   3.787E-01
    4.900   3.988E-01
    5.000   4.197E-01
    5.100   4.415E-01
    5.200   4.643E-01
    5.300   4.880E-01
    5.400   5.128E-01
    5.500   5.386E-01
    5.600   5.656E-01
    5.700   5.937E-01
    5.800   6.230E-01
    5.900   6.536E-01
    6.000   6.856E-01
    6.100   7.190E-01
    6.200   7.538E-01
    6.300   7.902E-01
    6.400   8.283E-01
    6.500   8.680E-01
    6.600   9.095E-01
    6.700   9.529E-01
    6.800   9.983E-01
    6.900   1.046E+00
    7.000   1.095E+00
    7.100   1.147E+00
    7.200   1.202E+00
    7.300   1.258E+00
    7.400   1.318E+00
    7.500   1.380E+00
    7.600   1.445E+00
    7.700   1.513E+00
    7.800   1.585E+00
    7.900   1.660E+00
    8.000   1.738E+00
    8.100   1.820E+00
    8.200   1.906E+00
    8.300   1.996E+00
    8.400   2.090E+00
    8.500   2.189E+00
    8.600   2.293E+00
    8.700   2.402E+00
    8.800   2.515E+00
    8.900   2.635E+00
    9.000   2.759E+00
    9.100   2.890E+00
    9.200   3.027E+00
    9.300   3.170E+00
    9.400   3.319E+00
    9.500   3.475E+00
    9.600   3.639E+00
    9.700   3.810E+00
    9.800   3.988E+00
    9.900   4.174E+00
   10.000   4.368E+00
   10.100   4.571E+00
   10.200   4.783E+00
   10.300   5.004E+00
   10.400   5.235E+00
   10.500   5.476E+00
   10.600   5.728E+00
   10.700   5.990E+00
   10.800   6.265E+00
   10.900   6.551E+00
   11.000   6.850E+00
   11.100   7.162E+00
   11.200   7.488E+00
   11.300   7.829E+00
   11.400   8.184E+00
   11.500   8.554E+00
   11.600   8.940E+00
   11.700   9.341E+00
   11.800   9.759E+00
   11.900   1.019E+01
   12.000   1.064E+01
   12.100   1.111E+01
   12.200   1.159E+01
   12.300   1.209E+01
   12.400   1.260E+01
   12.500   1.312E+01
   12.600   1.366E+01
   12.700   1.420E+01
   12.800   1.476E+01
   12.900   1.531E+01
   13.000   1.587E+01
   13.100   1.642E+01
   13.200   1.697E+01
   13.300   1.750E+01
   13.400   1.802E+01
   13.500   1.853E+01
   13.600   1.900E+01
   13.700   1.945E+01
   13.800   1.986E+01
   13.900   2.023E+01
   14.000   2.056E+01
   14.100   2.085E+01
   14.200   2.109E+01
   14.300   2.127E+01
   14.400   2.141E+01
   14.500   2.150E+01
   14.600   2.153E+01
   14.700   2.151E+01
   14.800   2.144E+01
   14.900   2.131E+01
   15.000   2.115E+01
   15.100   2.093E+01
   15.200   2.067E+01
   15.300   2.038E+01
   15.400   2.004E+01
   15.500   1.967E+01
   15.600   1.927E+01
   15.700   1.884E+01
   15.800   1.839E+01
   15.900   1.792E+01
   16.000   1.744E+01
   16.100   1.694E+01
   16.200   1.644E+01
   16.300   1.594E+01
   16.400   1.543E+01
   16.500   1.493E+01
   16.600   1.443E+01
   16.700   1.394E+01
   16.800   1.346E+01
   16.900   1.299E+01
   17.000   1.254E+01
   17.100   1.209E+01
   17.200   1.166E+01
   17.300   1.125E+01
   17.400   1.084E+01
   17.500   1.046E+01
   17.600   1.008E+01
   17.700   9.727E+00
   17.800   9.384E+00
   17.900   9.055E+00
   18.000   8.740E+00
   18.100   8.438E+00
   18.200   8.150E+00
   18.300   7.874E+00
   18.400   7.610E+00
   18.500   7.358E+00
   18.600   7.117E+00
   18.700   6.886E+00
   18.800   6.666E+00
   18.900   6.456E+00
   19.000   6.255E+00
   19.100   6.063E+00
   19.200   5.879E+00
   19.300   5.703E+00
   19.400   5.535E+00
   19.500   5.374E+00
   19.600   5.220E+00
   19.700   5.072E+00
   19.800   4.930E+00
   19.900   4.795E+00
   20.000   4.665E+00
   20.100   4.540E+00
   20.200   4.420E+00
   20.300   4.305E+00
   20.400   4.195E+00
   20.500   4.088E+00
   20.600   3.986E+00
   20.700   3.888E+00
   20.800   3.794E+00
   20.900   3.703E+00
   21.000   3.615E+00
   21.100   3.531E+00
   21.200   3.449E+00
   21.300   3.371E+00
   21.400   3.295E+00
   21.500   3.222E+00
   21.600   3.151E+00
   21.700   3.083E+00
   21.800   3.017E+00
   21.900   2.953E+00
   22.000   2.892E+00
   22.100   2.832E+00
   22.200   2.775E+00
   22.300   2.719E+00
   22.400   2.665E+00
   22.500   2.612E+00
   22.600   2.562E+00
   22.700   2.512E+00
   22.800   2.465E+00
   22.900   2.418E+00
   23.000   2.374E+00
   23.100   2.330E+00
   23.200   2.288E+00
   23.300   2.247E+00
   23.400   2.207E+00
   23.500   2.168E+00
   23.600   2.130E+00
   23.700   2.093E+00
   23.800   2.058E+00
   23.900   2.023E+00
   24.000   1.989E+00
   24.100   1.956E+00
   24.200   1.924E+00
   24.300   1.893E+00
   24.400   1.863E+00
   24.500   1.833E+00
   24.600   1.804E+00
   24.700   1.776E+00
   24.800   1.748E+00
   24.900   1.722E+00
   25.000   1.696E+00
   25.100   1.670E+00
   25.200   1.645E+00
   25.300   1.621E+00
   25.400   1.597E+00
   25.500   1.574E+00
   25.600   1.551E+00
   25.700   1.529E+00
   25.800   1.508E+00
   25.900   1.487E+00
   26.000   1.466E+00
   26.100   1.446E+00
   26.200   1.426E+00
   26.300   1.407E+00
   26.400   1.388E+00
   26.500   1.369E+00
   26.600   1.351E+00
   26.700   1.333E+00
   26.800   1.316E+00
   26.900   1.299E+00
   27.000   1.283E+00
   27.100   1.266E+00
   27.200   1.250E+00
   27.300   1.235E+00
   27.400   1.219E+00
   27.500   1.204E+00
   27.600   1.190E+00
   27.700   1.175E+00
   27.800   1.161E+00
   27.900   1.147E+00
   28.000   1.133E+00
   28.100   1.120E+00
   28.200   1.107E+00
   28.300   1.094E+00
   28.400   1.082E+00
   28.500   1.069E+00
   28.600   1.057E+00
   28.700   1.045E+00
   28.800   1.033E+00
   28.900   1.022E+00
   29.000   1.011E+00
   29.100   9.994E-01
   29.200   9.885E-01
   29.300   9.778E-01
   29.400   9.672E-01
   29.500   9.569E-01
   29.600   9.467E-01
   29.700   9.367E-01
   29.800   9.269E-01
   29.900   9.172E-01
   30.000   9.077E-01
 
 Z=  60 A= 146  D1M-QRPA
   E[MeV]   fQRPA[mb/MeV]
    0.100   1.665E-04
    0.200   6.660E-04
    0.300   1.499E-03
    0.400   2.666E-03
    0.500   4.169E-03
    0.600   6.008E-03
    0.700   8.186E-03
    0.800   1.070E-02
    0.900   1.356E-02
    1.000   1.676E-02
    1.100   2.031E-02
    1.200   2.421E-02
    1.300   2.845E-02
    1.400   3.305E-02
    1.500   3.800E-02
    1.600   4.330E-02
    1.700   4.896E-02
    1.800   5.499E-02
    1.900   6.137E-02
    2.000   6.812E-02
    2.100   7.525E-02
    2.200   8.275E-02
    2.300   9.063E-02
    2.400   9.889E-02
    2.500   1.076E-01
    2.600   1.166E-01
    2.700   1.261E-01
    2.800   1.360E-01
    2.900   1.463E-01
    3.000   1.571E-01
    3.100   1.684E-01
    3.200   1.801E-01
    3.300   1.923E-01
    3.400   2.051E-01
    3.500   2.184E-01
    3.600   2.322E-01
    3.700   2.466E-01
    3.800   2.616E-01
    3.900   2.772E-01
    4.000   2.935E-01
    4.100   3.105E-01
    4.200   3.282E-01
    4.300   3.466E-01
    4.400   3.657E-01
    4.500   3.857E-01
    4.600   4.065E-01
    4.700   4.282E-01
    4.800   4.508E-01
    4.900   4.744E-01
    5.000   4.989E-01
    5.100   5.245E-01
    5.200   5.512E-01
    5.300   5.790E-01
    5.400   6.080E-01
    5.500   6.382E-01
    5.600   6.697E-01
    5.700   7.025E-01
    5.800   7.368E-01
    5.900   7.725E-01
    6.000   8.098E-01
    6.100   8.487E-01
    6.200   8.892E-01
    6.300   9.315E-01
    6.400   9.756E-01
    6.500   1.022E+00
    6.600   1.070E+00
    6.700   1.120E+00
    6.800   1.172E+00
    6.900   1.227E+00
    7.000   1.283E+00
    7.100   1.343E+00
    7.200   1.405E+00
    7.300   1.469E+00
    7.400   1.537E+00
    7.500   1.607E+00
    7.600   1.681E+00
    7.700   1.757E+00
    7.800   1.837E+00
    7.900   1.921E+00
    8.000   2.008E+00
    8.100   2.099E+00
    8.200   2.194E+00
    8.300   2.293E+00
    8.400   2.396E+00
    8.500   2.505E+00
    8.600   2.618E+00
    8.700   2.736E+00
    8.800   2.860E+00
    8.900   2.989E+00
    9.000   3.124E+00
    9.100   3.266E+00
    9.200   3.414E+00
    9.300   3.569E+00
    9.400   3.731E+00
    9.500   3.900E+00
    9.600   4.078E+00
    9.700   4.264E+00
    9.800   4.458E+00
    9.900   4.662E+00
   10.000   4.875E+00
   10.100   5.098E+00
   10.200   5.332E+00
   10.300   5.577E+00
   10.400   5.833E+00
   10.500   6.100E+00
   10.600   6.381E+00
   10.700   6.674E+00
   10.800   6.980E+00
   10.900   7.300E+00
   11.000   7.635E+00
   11.100   7.984E+00
   11.200   8.349E+00
   11.300   8.729E+00
   11.400   9.124E+00
   11.500   9.536E+00
   11.600   9.964E+00
   11.700   1.041E+01
   11.800   1.087E+01
   11.900   1.134E+01
   12.000   1.183E+01
   12.100   1.234E+01
   12.200   1.285E+01
   12.300   1.338E+01
   12.400   1.392E+01
   12.500   1.446E+01
   12.600   1.501E+01
   12.700   1.557E+01
   12.800   1.612E+01
   12.900   1.666E+01
   13.000   1.719E+01
   13.100   1.772E+01
   13.200   1.822E+01
   13.300   1.870E+01
   13.400   1.916E+01
   13.500   1.959E+01
   13.600   1.998E+01
   13.700   2.033E+01
   13.800   2.065E+01
   13.900   2.092E+01
   14.000   2.115E+01
   14.100   2.133E+01
   14.200   2.146E+01
   14.300   2.154E+01
   14.400   2.158E+01
   14.500   2.156E+01
   14.600   2.150E+01
   14.700   2.139E+01
   14.800   2.124E+01
   14.900   2.104E+01
   15.000   2.081E+01
   15.100   2.053E+01
   15.200   2.022E+01
   15.300   1.987E+01
   15.400   1.950E+01
   15.500   1.909E+01
   15.600   1.867E+01
   15.700   1.823E+01
   15.800   1.777E+01
   15.900   1.730E+01
   16.000   1.682E+01
   16.100   1.633E+01
   16.200   1.584E+01
   16.300   1.536E+01
   16.400   1.488E+01
   16.500   1.440E+01
   16.600   1.393E+01
   16.700   1.347E+01
   16.800   1.302E+01
   16.900   1.259E+01
   17.000   1.216E+01
   17.100   1.175E+01
   17.200   1.135E+01
   17.300   1.097E+01
   17.400   1.059E+01
   17.500   1.024E+01
   17.600   9.895E+00
   17.700   9.566E+00
   17.800   9.249E+00
   17.900   8.946E+00
   18.000   8.655E+00
   18.100   8.376E+00
   18.200   8.109E+00
   18.300   7.853E+00
   18.400   7.607E+00
   18.500   7.373E+00
   18.600   7.148E+00
   18.700   6.932E+00
   18.800   6.725E+00
   18.900   6.528E+00
   19.000   6.338E+00
   19.100   6.156E+00
   19.200   5.982E+00
   19.300   5.814E+00
   19.400   5.654E+00
   19.500   5.500E+00
   19.600   5.352E+00
   19.700   5.210E+00
   19.800   5.073E+00
   19.900   4.942E+00
   20.000   4.816E+00
   20.100   4.694E+00
   20.200   4.578E+00
   20.300   4.465E+00
   20.400   4.357E+00
   20.500   4.253E+00
   20.600   4.152E+00
   20.700   4.055E+00
   20.800   3.962E+00
   20.900   3.872E+00
   21.000   3.785E+00
   21.100   3.701E+00
   21.200   3.619E+00
   21.300   3.541E+00
   21.400   3.465E+00
   21.500   3.392E+00
   21.600   3.321E+00
   21.700   3.252E+00
   21.800   3.186E+00
   21.900   3.121E+00
   22.000   3.059E+00
   22.100   2.999E+00
   22.200   2.940E+00
   22.300   2.884E+00
   22.400   2.829E+00
   22.500   2.775E+00
   22.600   2.723E+00
   22.700   2.673E+00
   22.800   2.624E+00
   22.900   2.577E+00
   23.000   2.531E+00
   23.100   2.486E+00
   23.200   2.442E+00
   23.300   2.400E+00
   23.400   2.359E+00
   23.500   2.319E+00
   23.600   2.280E+00
   23.700   2.242E+00
   23.800   2.205E+00
   23.900   2.169E+00
   24.000   2.134E+00
   24.100   2.100E+00
   24.200   2.066E+00
   24.300   2.034E+00
   24.400   2.002E+00
   24.500   1.971E+00
   24.600   1.941E+00
   24.700   1.912E+00
   24.800   1.883E+00
   24.900   1.855E+00
   25.000   1.828E+00
   25.100   1.801E+00
   25.200   1.775E+00
   25.300   1.749E+00
   25.400   1.725E+00
   25.500   1.700E+00
   25.600   1.676E+00
   25.700   1.653E+00
   25.800   1.630E+00
   25.900   1.608E+00
   26.000   1.586E+00
   26.100   1.565E+00
   26.200   1.544E+00
   26.300   1.524E+00
   26.400   1.504E+00
   26.500   1.484E+00
   26.600   1.465E+00
   26.700   1.446E+00
   26.800   1.428E+00
   26.900   1.410E+00
   27.000   1.392E+00
   27.100   1.375E+00
   27.200   1.358E+00
   27.300   1.342E+00
   27.400   1.325E+00
   27.500   1.309E+00
   27.600   1.294E+00
   27.700   1.278E+00
   27.800   1.263E+00
   27.900   1.248E+00
   28.000   1.234E+00
   28.100   1.220E+00
   28.200   1.206E+00
   28.300   1.192E+00
   28.400   1.178E+00
   28.500   1.165E+00
   28.600   1.152E+00
   28.700   1.139E+00
   28.800   1.127E+00
   28.900   1.115E+00
   29.000   1.102E+00
   29.100   1.091E+00
   29.200   1.079E+00
   29.300   1.067E+00
   29.400   1.056E+00
   29.500   1.045E+00
   29.600   1.034E+00
   29.700   1.023E+00
   29.800   1.013E+00
   29.900   1.002E+00
   30.000   9.922E-01
 
 Z=  60 A= 147  D1M-QRPA-Inter
 E[MeV]  fQRPA[mb/MeV]
    0.100   1.845E-04
    0.200   7.382E-04
    0.300   1.661E-03
    0.400   2.955E-03
    0.500   4.618E-03
    0.600   6.654E-03
    0.700   9.061E-03
    0.800   1.184E-02
    0.900   1.500E-02
    1.000   1.853E-02
    1.100   2.244E-02
    1.200   2.672E-02
    1.300   3.139E-02
    1.400   3.644E-02
    1.500   4.187E-02
    1.600   4.768E-02
    1.700   5.388E-02
    1.800   6.047E-02
    1.900   6.745E-02
    2.000   7.482E-02
    2.100   8.260E-02
    2.200   9.078E-02
    2.300   9.938E-02
    2.400   1.084E-01
    2.500   1.178E-01
    2.600   1.277E-01
    2.700   1.381E-01
    2.800   1.489E-01
    2.900   1.601E-01
    3.000   1.719E-01
    3.100   1.841E-01
    3.200   1.969E-01
    3.300   2.103E-01
    3.400   2.242E-01
    3.500   2.386E-01
    3.600   2.537E-01
    3.700   2.694E-01
    3.800   2.858E-01
    3.900   3.028E-01
    4.000   3.206E-01
    4.100   3.390E-01
    4.200   3.583E-01
    4.300   3.783E-01
    4.400   3.992E-01
    4.500   4.210E-01
    4.600   4.436E-01
    4.700   4.672E-01
    4.800   4.918E-01
    4.900   5.173E-01
    5.000   5.440E-01
    5.100   5.717E-01
    5.200   6.006E-01
    5.300   6.307E-01
    5.400   6.620E-01
    5.500   6.947E-01
    5.600   7.287E-01
    5.700   7.641E-01
    5.800   8.009E-01
    5.900   8.394E-01
    6.000   8.794E-01
    6.100   9.211E-01
    6.200   9.646E-01
    6.300   1.010E+00
    6.400   1.057E+00
    6.500   1.106E+00
    6.600   1.158E+00
    6.700   1.211E+00
    6.800   1.267E+00
    6.900   1.325E+00
    7.000   1.386E+00
    7.100   1.450E+00
    7.200   1.516E+00
    7.300   1.585E+00
    7.400   1.657E+00
    7.500   1.732E+00
    7.600   1.810E+00
    7.700   1.892E+00
    7.800   1.978E+00
    7.900   2.067E+00
    8.000   2.160E+00
    8.100   2.257E+00
    8.200   2.358E+00
    8.300   2.464E+00
    8.400   2.575E+00
    8.500   2.690E+00
    8.600   2.811E+00
    8.700   2.938E+00
    8.800   3.070E+00
    8.900   3.208E+00
    9.000   3.352E+00
    9.100   3.503E+00
    9.200   3.661E+00
    9.300   3.826E+00
    9.400   3.999E+00
    9.500   4.180E+00
    9.600   4.369E+00
    9.700   4.567E+00
    9.800   4.774E+00
    9.900   4.991E+00
   10.000   5.218E+00
   10.100   5.456E+00
   10.200   5.704E+00
   10.300   5.964E+00
   10.400   6.236E+00
   10.500   6.520E+00
   10.600   6.817E+00
   10.700   7.127E+00
   10.800   7.450E+00
   10.900   7.788E+00
   11.000   8.141E+00
   11.100   8.508E+00
   11.200   8.890E+00
   11.300   9.288E+00
   11.400   9.700E+00
   11.500   1.013E+01
   11.600   1.057E+01
   11.700   1.103E+01
   11.800   1.150E+01
   11.900   1.199E+01
   12.000   1.249E+01
   12.100   1.300E+01
   12.200   1.352E+01
   12.300   1.404E+01
   12.400   1.458E+01
   12.500   1.511E+01
   12.600   1.565E+01
   12.700   1.618E+01
   12.800   1.671E+01
   12.900   1.723E+01
   13.000   1.773E+01
   13.100   1.822E+01
   13.200   1.869E+01
   13.300   1.913E+01
   13.400   1.954E+01
   13.500   1.992E+01
   13.600   2.027E+01
   13.700   2.057E+01
   13.800   2.084E+01
   13.900   2.107E+01
   14.000   2.125E+01
   14.100   2.138E+01
   14.200   2.147E+01
   14.300   2.151E+01
   14.400   2.151E+01
   14.500   2.145E+01
   14.600   2.136E+01
   14.700   2.122E+01
   14.800   2.103E+01
   14.900   2.081E+01
   15.000   2.055E+01
   15.100   2.025E+01
   15.200   1.992E+01
   15.300   1.956E+01
   15.400   1.918E+01
   15.500   1.877E+01
   15.600   1.834E+01
   15.700   1.789E+01
   15.800   1.744E+01
   15.900   1.697E+01
   16.000   1.650E+01
   16.100   1.602E+01
   16.200   1.555E+01
   16.300   1.508E+01
   16.400   1.461E+01
   16.500   1.414E+01
   16.600   1.369E+01
   16.700   1.325E+01
   16.800   1.281E+01
   16.900   1.239E+01
   17.000   1.198E+01
   17.100   1.158E+01
   17.200   1.120E+01
   17.300   1.083E+01
   17.400   1.047E+01
   17.500   1.013E+01
   17.600   9.796E+00
   17.700   9.478E+00
   17.800   9.172E+00
   17.900   8.879E+00
   18.000   8.597E+00
   18.100   8.327E+00
   18.200   8.068E+00
   18.300   7.819E+00
   18.400   7.581E+00
   18.500   7.353E+00
   18.600   7.134E+00
   18.700   6.924E+00
   18.800   6.723E+00
   18.900   6.530E+00
   19.000   6.344E+00
   19.100   6.166E+00
   19.200   5.996E+00
   19.300   5.832E+00
   19.400   5.675E+00
   19.500   5.523E+00
   19.600   5.378E+00
   19.700   5.238E+00
   19.800   5.104E+00
   19.900   4.975E+00
   20.000   4.850E+00
   20.100   4.731E+00
   20.200   4.615E+00
   20.300   4.504E+00
   20.400   4.397E+00
   20.500   4.294E+00
   20.600   4.195E+00
   20.700   4.099E+00
   20.800   4.006E+00
   20.900   3.916E+00
   21.000   3.830E+00
   21.100   3.747E+00
   21.200   3.666E+00
   21.300   3.588E+00
   21.400   3.512E+00
   21.500   3.439E+00
   21.600   3.369E+00
   21.700   3.300E+00
   21.800   3.234E+00
   21.900   3.170E+00
   22.000   3.107E+00
   22.100   3.047E+00
   22.200   2.989E+00
   22.300   2.932E+00
   22.400   2.877E+00
   22.500   2.823E+00
   22.600   2.771E+00
   22.700   2.721E+00
   22.800   2.672E+00
   22.900   2.625E+00
   23.000   2.578E+00
   23.100   2.533E+00
   23.200   2.490E+00
   23.300   2.447E+00
   23.400   2.406E+00
   23.500   2.365E+00
   23.600   2.326E+00
   23.700   2.288E+00
   23.800   2.251E+00
   23.900   2.214E+00
   24.000   2.179E+00
   24.100   2.145E+00
   24.200   2.111E+00
   24.300   2.078E+00
   24.400   2.046E+00
   24.500   2.015E+00
   24.600   1.985E+00
   24.700   1.955E+00
   24.800   1.926E+00
   24.900   1.898E+00
   25.000   1.870E+00
   25.100   1.843E+00
   25.200   1.817E+00
   25.300   1.791E+00
   25.400   1.766E+00
   25.500   1.741E+00
   25.600   1.717E+00
   25.700   1.693E+00
   25.800   1.670E+00
   25.900   1.648E+00
   26.000   1.626E+00
   26.100   1.604E+00
   26.200   1.583E+00
   26.300   1.562E+00
   26.400   1.542E+00
   26.500   1.522E+00
   26.600   1.503E+00
   26.700   1.484E+00
   26.800   1.465E+00
   26.900   1.447E+00
   27.000   1.429E+00
   27.100   1.411E+00
   27.200   1.394E+00
   27.300   1.377E+00
   27.400   1.361E+00
   27.500   1.344E+00
   27.600   1.328E+00
   27.700   1.313E+00
   27.800   1.298E+00
   27.900   1.282E+00
   28.000   1.268E+00
   28.100   1.253E+00
   28.200   1.239E+00
   28.300   1.225E+00
   28.400   1.211E+00
   28.500   1.198E+00
   28.600   1.184E+00
   28.700   1.171E+00
   28.800   1.159E+00
   28.900   1.146E+00
   29.000   1.134E+00
   29.100   1.122E+00
   29.200   1.110E+00
   29.300   1.098E+00
   29.400   1.086E+00
   29.500   1.075E+00
   29.600   1.064E+00
   29.700   1.053E+00
   29.800   1.042E+00
   29.900   1.032E+00
   30.000   1.021E+00
 
 Z=  60 A= 148  D1M-QRPA
   E[MeV]   fQRPA[mb/MeV]
    0.100   2.044E-04
    0.200   8.177E-04
    0.300   1.840E-03
    0.400   3.271E-03
    0.500   5.112E-03
    0.600   7.362E-03
    0.700   1.002E-02
    0.800   1.309E-02
    0.900   1.657E-02
    1.000   2.046E-02
    1.100   2.477E-02
    1.200   2.948E-02
    1.300   3.460E-02
    1.400   4.014E-02
    1.500   4.609E-02
    1.600   5.246E-02
    1.700   5.924E-02
    1.800   6.644E-02
    1.900   7.406E-02
    2.000   8.211E-02
    2.100   9.060E-02
    2.200   9.952E-02
    2.300   1.089E-01
    2.400   1.187E-01
    2.500   1.290E-01
    2.600   1.398E-01
    2.700   1.510E-01
    2.800   1.628E-01
    2.900   1.751E-01
    3.000   1.879E-01
    3.100   2.012E-01
    3.200   2.151E-01
    3.300   2.297E-01
    3.400   2.448E-01
    3.500   2.606E-01
    3.600   2.770E-01
    3.700   2.941E-01
    3.800   3.119E-01
    3.900   3.305E-01
    4.000   3.498E-01
    4.100   3.699E-01
    4.200   3.909E-01
    4.300   4.127E-01
    4.400   4.354E-01
    4.500   4.591E-01
    4.600   4.837E-01
    4.700   5.093E-01
    4.800   5.360E-01
    4.900   5.637E-01
    5.000   5.926E-01
    5.100   6.227E-01
    5.200   6.539E-01
    5.300   6.865E-01
    5.400   7.203E-01
    5.500   7.555E-01
    5.600   7.922E-01
    5.700   8.303E-01
    5.800   8.699E-01
    5.900   9.112E-01
    6.000   9.542E-01
    6.100   9.989E-01
    6.200   1.046E+00
    6.300   1.094E+00
    6.400   1.145E+00
    6.500   1.197E+00
    6.600   1.252E+00
    6.700   1.309E+00
    6.800   1.369E+00
    6.900   1.431E+00
    7.000   1.496E+00
    7.100   1.564E+00
    7.200   1.634E+00
    7.300   1.708E+00
    7.400   1.785E+00
    7.500   1.865E+00
    7.600   1.949E+00
    7.700   2.036E+00
    7.800   2.127E+00
    7.900   2.222E+00
    8.000   2.321E+00
    8.100   2.425E+00
    8.200   2.533E+00
    8.300   2.646E+00
    8.400   2.764E+00
    8.500   2.888E+00
    8.600   3.017E+00
    8.700   3.151E+00
    8.800   3.292E+00
    8.900   3.439E+00
    9.000   3.593E+00
    9.100   3.754E+00
    9.200   3.923E+00
    9.300   4.099E+00
    9.400   4.283E+00
    9.500   4.476E+00
    9.600   4.677E+00
    9.700   4.888E+00
    9.800   5.109E+00
    9.900   5.339E+00
   10.000   5.581E+00
   10.100   5.833E+00
   10.200   6.097E+00
   10.300   6.373E+00
   10.400   6.661E+00
   10.500   6.962E+00
   10.600   7.276E+00
   10.700   7.604E+00
   10.800   7.946E+00
   10.900   8.302E+00
   11.000   8.673E+00
   11.100   9.058E+00
   11.200   9.459E+00
   11.300   9.874E+00
   11.400   1.030E+01
   11.500   1.075E+01
   11.600   1.121E+01
   11.700   1.168E+01
   11.800   1.216E+01
   11.900   1.266E+01
   12.000   1.317E+01
   12.100   1.368E+01
   12.200   1.420E+01
   12.300   1.472E+01
   12.400   1.525E+01
   12.500   1.578E+01
   12.600   1.630E+01
   12.700   1.681E+01
   12.800   1.731E+01
   12.900   1.780E+01
   13.000   1.827E+01
   13.100   1.872E+01
   13.200   1.915E+01
   13.300   1.955E+01
   13.400   1.991E+01
   13.500   2.024E+01
   13.600   2.054E+01
   13.700   2.080E+01
   13.800   2.102E+01
   13.900   2.119E+01
   14.000   2.133E+01
   14.100   2.142E+01
   14.200   2.146E+01
   14.300   2.146E+01
   14.400   2.142E+01
   14.500   2.133E+01
   14.600   2.120E+01
   14.700   2.103E+01
   14.800   2.081E+01
   14.900   2.056E+01
   15.000   2.028E+01
   15.100   1.996E+01
   15.200   1.962E+01
   15.300   1.924E+01
   15.400   1.885E+01
   15.500   1.843E+01
   15.600   1.800E+01
   15.700   1.756E+01
   15.800   1.710E+01
   15.900   1.664E+01
   16.000   1.617E+01
   16.100   1.571E+01
   16.200   1.524E+01
   16.300   1.478E+01
   16.400   1.433E+01
   16.500   1.388E+01
   16.600   1.344E+01
   16.700   1.301E+01
   16.800   1.259E+01
   16.900   1.219E+01
   17.000   1.179E+01
   17.100   1.141E+01
   17.200   1.104E+01
   17.300   1.068E+01
   17.400   1.034E+01
   17.500   1.001E+01
   17.600   9.690E+00
   17.700   9.383E+00
   17.800   9.088E+00
   17.900   8.805E+00
   18.000   8.533E+00
   18.100   8.271E+00
   18.200   8.021E+00
   18.300   7.780E+00
   18.400   7.549E+00
   18.500   7.327E+00
   18.600   7.114E+00
   18.700   6.910E+00
   18.800   6.714E+00
   18.900   6.526E+00
   19.000   6.345E+00
   19.100   6.172E+00
   19.200   6.005E+00
   19.300   5.845E+00
   19.400   5.691E+00
   19.500   5.542E+00
   19.600   5.400E+00
   19.700   5.263E+00
   19.800   5.131E+00
   19.900   5.004E+00
   20.000   4.881E+00
   20.100   4.763E+00
   20.200   4.650E+00
   20.300   4.540E+00
   20.400   4.434E+00
   20.500   4.332E+00
   20.600   4.234E+00
   20.700   4.139E+00
   20.800   4.047E+00
   20.900   3.959E+00
   21.000   3.873E+00
   21.100   3.790E+00
   21.200   3.710E+00
   21.300   3.632E+00
   21.400   3.557E+00
   21.500   3.485E+00
   21.600   3.414E+00
   21.700   3.346E+00
   21.800   3.280E+00
   21.900   3.216E+00
   22.000   3.154E+00
   22.100   3.094E+00
   22.200   3.035E+00
   22.300   2.979E+00
   22.400   2.924E+00
   22.500   2.870E+00
   22.600   2.818E+00
   22.700   2.768E+00
   22.800   2.719E+00
   22.900   2.671E+00
   23.000   2.625E+00
   23.100   2.579E+00
   23.200   2.536E+00
   23.300   2.493E+00
   23.400   2.451E+00
   23.500   2.411E+00
   23.600   2.371E+00
   23.700   2.333E+00
   23.800   2.295E+00
   23.900   2.259E+00
   24.000   2.223E+00
   24.100   2.189E+00
   24.200   2.155E+00
   24.300   2.122E+00
   24.400   2.090E+00
   24.500   2.058E+00
   24.600   2.028E+00
   24.700   1.998E+00
   24.800   1.968E+00
   24.900   1.940E+00
   25.000   1.912E+00
   25.100   1.885E+00
   25.200   1.858E+00
   25.300   1.832E+00
   25.400   1.806E+00
   25.500   1.781E+00
   25.600   1.757E+00
   25.700   1.733E+00
   25.800   1.710E+00
   25.900   1.687E+00
   26.000   1.665E+00
   26.100   1.643E+00
   26.200   1.621E+00
   26.300   1.600E+00
   26.400   1.580E+00
   26.500   1.560E+00
   26.600   1.540E+00
   26.700   1.521E+00
   26.800   1.502E+00
   26.900   1.483E+00
   27.000   1.465E+00
   27.100   1.447E+00
   27.200   1.430E+00
   27.300   1.413E+00
   27.400   1.396E+00
   27.500   1.379E+00
   27.600   1.363E+00
   27.700   1.347E+00
   27.800   1.332E+00
   27.900   1.316E+00
   28.000   1.301E+00
   28.100   1.287E+00
   28.200   1.272E+00
   28.300   1.258E+00
   28.400   1.244E+00
   28.500   1.230E+00
   28.600   1.217E+00
   28.700   1.203E+00
   28.800   1.190E+00
   28.900   1.178E+00
   29.000   1.165E+00
   29.100   1.153E+00
   29.200   1.141E+00
   29.300   1.129E+00
   29.400   1.117E+00
   29.500   1.105E+00
   29.600   1.094E+00
   29.700   1.083E+00
   29.800   1.072E+00
   29.900   1.061E+00
   30.000   1.050E+00
 
 Z=  60 A= 149  D1M-QRPA-Inter
 E[MeV]  fQRPA[mb/MeV]
    0.100   1.967E-03
    0.200   4.505E-03
    0.300   7.408E-03
    0.400   1.062E-02
    0.500   1.413E-02
    0.600   1.791E-02
    0.700   2.198E-02
    0.800   2.631E-02
    0.900   3.091E-02
    1.000   3.575E-02
    1.100   4.085E-02
    1.200   4.618E-02
    1.300   5.176E-02
    1.400   5.757E-02
    1.500   6.364E-02
    1.600   6.996E-02
    1.700   7.655E-02
    1.800   8.343E-02
    1.900   9.061E-02
    2.000   9.812E-02
    2.100   1.060E-01
    2.200   1.142E-01
    2.300   1.228E-01
    2.400   1.319E-01
    2.500   1.413E-01
    2.600   1.513E-01
    2.700   1.617E-01
    2.800   1.727E-01
    2.900   1.842E-01
    3.000   1.963E-01
    3.100   2.091E-01
    3.200   2.225E-01
    3.300   2.366E-01
    3.400   2.515E-01
    3.500   2.672E-01
    3.600   2.838E-01
    3.700   3.013E-01
    3.800   3.197E-01
    3.900   3.390E-01
    4.000   3.594E-01
    4.100   3.808E-01
    4.200   4.033E-01
    4.300   4.268E-01
    4.400   4.513E-01
    4.500   4.769E-01
    4.600   5.036E-01
    4.700   5.313E-01
    4.800   5.600E-01
    4.900   5.897E-01
    5.000   6.205E-01
    5.100   6.523E-01
    5.200   6.852E-01
    5.300   7.193E-01
    5.400   7.545E-01
    5.500   7.910E-01
    5.600   8.289E-01
    5.700   8.681E-01
    5.800   9.088E-01
    5.900   9.511E-01
    6.000   9.951E-01
    6.100   1.041E+00
    6.200   1.089E+00
    6.300   1.138E+00
    6.400   1.190E+00
    6.500   1.244E+00
    6.600   1.301E+00
    6.700   1.360E+00
    6.800   1.421E+00
    6.900   1.485E+00
    7.000   1.552E+00
    7.100   1.622E+00
    7.200   1.695E+00
    7.300   1.771E+00
    7.400   1.851E+00
    7.500   1.934E+00
    7.600   2.022E+00
    7.700   2.113E+00
    7.800   2.209E+00
    7.900   2.310E+00
    8.000   2.416E+00
    8.100   2.527E+00
    8.200   2.644E+00
    8.300   2.768E+00
    8.400   2.897E+00
    8.500   3.034E+00
    8.600   3.179E+00
    8.700   3.331E+00
    8.800   3.492E+00
    8.900   3.662E+00
    9.000   3.841E+00
    9.100   4.031E+00
    9.200   4.232E+00
    9.300   4.445E+00
    9.400   4.671E+00
    9.500   4.910E+00
    9.600   5.164E+00
    9.700   5.434E+00
    9.800   5.720E+00
    9.900   6.023E+00
   10.000   6.346E+00
   10.100   6.688E+00
   10.200   7.050E+00
   10.300   7.434E+00
   10.400   7.839E+00
   10.500   8.266E+00
   10.600   8.714E+00
   10.700   9.183E+00
   10.800   9.670E+00
   10.900   1.017E+01
   11.000   1.069E+01
   11.100   1.122E+01
   11.200   1.175E+01
   11.300   1.228E+01
   11.400   1.280E+01
   11.500   1.330E+01
   11.600   1.378E+01
   11.700   1.424E+01
   11.800   1.466E+01
   11.900   1.505E+01
   12.000   1.540E+01
   12.100   1.572E+01
   12.200   1.600E+01
   12.300   1.626E+01
   12.400   1.649E+01
   12.500   1.670E+01
   12.600   1.689E+01
   12.700   1.708E+01
   12.800   1.726E+01
   12.900   1.744E+01
   13.000   1.761E+01
   13.100   1.779E+01
   13.200   1.796E+01
   13.300   1.813E+01
   13.400   1.829E+01
   13.500   1.845E+01
   13.600   1.860E+01
   13.700   1.874E+01
   13.800   1.887E+01
   13.900   1.898E+01
   14.000   1.907E+01
   14.100   1.914E+01
   14.200   1.918E+01
   14.300   1.919E+01
   14.400   1.918E+01
   14.500   1.914E+01
   14.600   1.907E+01
   14.700   1.897E+01
   14.800   1.886E+01
   14.900   1.872E+01
   15.000   1.856E+01
   15.100   1.839E+01
   15.200   1.821E+01
   15.300   1.803E+01
   15.400   1.783E+01
   15.500   1.763E+01
   15.600   1.742E+01
   15.700   1.720E+01
   15.800   1.697E+01
   15.900   1.673E+01
   16.000   1.648E+01
   16.100   1.620E+01
   16.200   1.591E+01
   16.300   1.559E+01
   16.400   1.526E+01
   16.500   1.490E+01
   16.600   1.452E+01
   16.700   1.413E+01
   16.800   1.372E+01
   16.900   1.330E+01
   17.000   1.289E+01
   17.100   1.246E+01
   17.200   1.205E+01
   17.300   1.163E+01
   17.400   1.123E+01
   17.500   1.083E+01
   17.600   1.045E+01
   17.700   1.008E+01
   17.800   9.719E+00
   17.900   9.376E+00
   18.000   9.047E+00
   18.100   8.734E+00
   18.200   8.436E+00
   18.300   8.153E+00
   18.400   7.886E+00
   18.500   7.633E+00
   18.600   7.395E+00
   18.700   7.169E+00
   18.800   6.956E+00
   18.900   6.754E+00
   19.000   6.563E+00
   19.100   6.382E+00
   19.200   6.209E+00
   19.300   6.044E+00
   19.400   5.887E+00
   19.500   5.736E+00
   19.600   5.590E+00
   19.700   5.450E+00
   19.800   5.315E+00
   19.900   5.185E+00
   20.000   5.058E+00
   20.100   4.935E+00
   20.200   4.815E+00
   20.300   4.699E+00
   20.400   4.586E+00
   20.500   4.476E+00
   20.600   4.368E+00
   20.700   4.264E+00
   20.800   4.163E+00
   20.900   4.065E+00
   21.000   3.970E+00
   21.100   3.879E+00
   21.200   3.790E+00
   21.300   3.705E+00
   21.400   3.622E+00
   21.500   3.542E+00
   21.600   3.465E+00
   21.700   3.391E+00
   21.800   3.318E+00
   21.900   3.248E+00
   22.000   3.180E+00
   22.100   3.114E+00
   22.200   3.049E+00
   22.300   2.986E+00
   22.400   2.924E+00
   22.500   2.864E+00
   22.600   2.805E+00
   22.700   2.747E+00
   22.800   2.691E+00
   22.900   2.635E+00
   23.000   2.580E+00
   23.100   2.527E+00
   23.200   2.474E+00
   23.300   2.423E+00
   23.400   2.372E+00
   23.500   2.323E+00
   23.600   2.275E+00
   23.700   2.227E+00
   23.800   2.181E+00
   23.900   2.136E+00
   24.000   2.092E+00
   24.100   2.049E+00
   24.200   2.007E+00
   24.300   1.967E+00
   24.400   1.927E+00
   24.500   1.889E+00
   24.600   1.851E+00
   24.700   1.815E+00
   24.800   1.780E+00
   24.900   1.746E+00
   25.000   1.712E+00
   25.100   1.680E+00
   25.200   1.649E+00
   25.300   1.619E+00
   25.400   1.590E+00
   25.500   1.561E+00
   25.600   1.533E+00
   25.700   1.506E+00
   25.800   1.480E+00
   25.900   1.455E+00
   26.000   1.430E+00
   26.100   1.406E+00
   26.200   1.382E+00
   26.300   1.359E+00
   26.400   1.337E+00
   26.500   1.315E+00
   26.600   1.294E+00
   26.700   1.274E+00
   26.800   1.254E+00
   26.900   1.234E+00
   27.000   1.215E+00
   27.100   1.197E+00
   27.200   1.179E+00
   27.300   1.162E+00
   27.400   1.145E+00
   27.500   1.129E+00
   27.600   1.113E+00
   27.700   1.097E+00
   27.800   1.082E+00
   27.900   1.067E+00
   28.000   1.053E+00
   28.100   1.039E+00
   28.200   1.025E+00
   28.300   1.012E+00
   28.400   9.992E-01
   28.500   9.865E-01
   28.600   9.741E-01
   28.700   9.620E-01
   28.800   9.502E-01
   28.900   9.386E-01
   29.000   9.273E-01
   29.100   9.162E-01
   29.200   9.054E-01
   29.300   8.947E-01
   29.400   8.843E-01
   29.500   8.741E-01
   29.600   8.642E-01
   29.700   8.544E-01
   29.800   8.448E-01
   29.900   8.354E-01
   30.000   8.261E-01
 
 Z=  60 A= 150  D1M-QRPA
   E[MeV]   fQRPA[mb/MeV]
    0.100   1.850E-02
    0.200   2.426E-02
    0.300   2.916E-02
    0.400   3.371E-02
    0.500   3.816E-02
    0.600   4.261E-02
    0.700   4.711E-02
    0.800   5.169E-02
    0.900   5.634E-02
    1.000   6.106E-02
    1.100   6.586E-02
    1.200   7.073E-02
    1.300   7.568E-02
    1.400   8.073E-02
    1.500   8.589E-02
    1.600   9.121E-02
    1.700   9.670E-02
    1.800   1.024E-01
    1.900   1.084E-01
    2.000   1.146E-01
    2.100   1.212E-01
    2.200   1.281E-01
    2.300   1.354E-01
    2.400   1.432E-01
    2.500   1.514E-01
    2.600   1.601E-01
    2.700   1.693E-01
    2.800   1.791E-01
    2.900   1.895E-01
    3.000   2.006E-01
    3.100   2.124E-01
    3.200   2.249E-01
    3.300   2.383E-01
    3.400   2.527E-01
    3.500   2.680E-01
    3.600   2.843E-01
    3.700   3.017E-01
    3.800   3.203E-01
    3.900   3.400E-01
    4.000   3.610E-01
    4.100   3.832E-01
    4.200   4.067E-01
    4.300   4.314E-01
    4.400   4.573E-01
    4.500   4.844E-01
    4.600   5.125E-01
    4.700   5.417E-01
    4.800   5.719E-01
    4.900   6.030E-01
    5.000   6.351E-01
    5.100   6.680E-01
    5.200   7.019E-01
    5.300   7.368E-01
    5.400   7.727E-01
    5.500   8.097E-01
    5.600   8.479E-01
    5.700   8.873E-01
    5.800   9.282E-01
    5.900   9.705E-01
    6.000   1.015E+00
    6.100   1.060E+00
    6.200   1.108E+00
    6.300   1.158E+00
    6.400   1.210E+00
    6.500   1.264E+00
    6.600   1.321E+00
    6.700   1.380E+00
    6.800   1.442E+00
    6.900   1.507E+00
    7.000   1.574E+00
    7.100   1.645E+00
    7.200   1.719E+00
    7.300   1.796E+00
    7.400   1.877E+00
    7.500   1.961E+00
    7.600   2.051E+00
    7.700   2.144E+00
    7.800   2.243E+00
    7.900   2.347E+00
    8.000   2.458E+00
    8.100   2.575E+00
    8.200   2.698E+00
    8.300   2.830E+00
    8.400   2.969E+00
    8.500   3.117E+00
    8.600   3.274E+00
    8.700   3.442E+00
    8.800   3.621E+00
    8.900   3.811E+00
    9.000   4.015E+00
    9.100   4.232E+00
    9.200   4.464E+00
    9.300   4.713E+00
    9.400   4.980E+00
    9.500   5.266E+00
    9.600   5.574E+00
    9.700   5.904E+00
    9.800   6.260E+00
    9.900   6.642E+00
   10.000   7.053E+00
   10.100   7.495E+00
   10.200   7.969E+00
   10.300   8.477E+00
   10.400   9.019E+00
   10.500   9.594E+00
   10.600   1.020E+01
   10.700   1.084E+01
   10.800   1.151E+01
   10.900   1.219E+01
   11.000   1.288E+01
   11.100   1.358E+01
   11.200   1.426E+01
   11.300   1.492E+01
   11.400   1.554E+01
   11.500   1.609E+01
   11.600   1.657E+01
   11.700   1.697E+01
   11.800   1.728E+01
   11.900   1.750E+01
   12.000   1.762E+01
   12.100   1.766E+01
   12.200   1.763E+01
   12.300   1.755E+01
   12.400   1.742E+01
   12.500   1.728E+01
   12.600   1.712E+01
   12.700   1.697E+01
   12.800   1.682E+01
   12.900   1.670E+01
   13.000   1.659E+01
   13.100   1.652E+01
   13.200   1.646E+01
   13.300   1.643E+01
   13.400   1.643E+01
   13.500   1.644E+01
   13.600   1.647E+01
   13.700   1.651E+01
   13.800   1.656E+01
   13.900   1.662E+01
   14.000   1.667E+01
   14.100   1.671E+01
   14.200   1.675E+01
   14.300   1.678E+01
   14.400   1.679E+01
   14.500   1.678E+01
   14.600   1.677E+01
   14.700   1.674E+01
   14.800   1.670E+01
   14.900   1.666E+01
   15.000   1.661E+01
   15.100   1.657E+01
   15.200   1.653E+01
   15.300   1.651E+01
   15.400   1.649E+01
   15.500   1.648E+01
   15.600   1.647E+01
   15.700   1.647E+01
   15.800   1.646E+01
   15.900   1.644E+01
   16.000   1.640E+01
   16.100   1.634E+01
   16.200   1.623E+01
   16.300   1.608E+01
   16.400   1.588E+01
   16.500   1.563E+01
   16.600   1.533E+01
   16.700   1.499E+01
   16.800   1.461E+01
   16.900   1.420E+01
   17.000   1.376E+01
   17.100   1.331E+01
   17.200   1.285E+01
   17.300   1.238E+01
   17.400   1.192E+01
   17.500   1.146E+01
   17.600   1.101E+01
   17.700   1.058E+01
   17.800   1.016E+01
   17.900   9.760E+00
   18.000   9.378E+00
   18.100   9.016E+00
   18.200   8.674E+00
   18.300   8.354E+00
   18.400   8.054E+00
   18.500   7.774E+00
   18.600   7.513E+00
   18.700   7.271E+00
   18.800   7.045E+00
   18.900   6.834E+00
   19.000   6.636E+00
   19.100   6.451E+00
   19.200   6.276E+00
   19.300   6.110E+00
   19.400   5.953E+00
   19.500   5.802E+00
   19.600   5.658E+00
   19.700   5.518E+00
   19.800   5.383E+00
   19.900   5.252E+00
   20.000   5.124E+00
   20.100   4.998E+00
   20.200   4.875E+00
   20.300   4.754E+00
   20.400   4.636E+00
   20.500   4.520E+00
   20.600   4.406E+00
   20.700   4.295E+00
   20.800   4.186E+00
   20.900   4.081E+00
   21.000   3.979E+00
   21.100   3.880E+00
   21.200   3.785E+00
   21.300   3.694E+00
   21.400   3.605E+00
   21.500   3.520E+00
   21.600   3.438E+00
   21.700   3.359E+00
   21.800   3.282E+00
   21.900   3.207E+00
   22.000   3.135E+00
   22.100   3.064E+00
   22.200   2.994E+00
   22.300   2.926E+00
   22.400   2.860E+00
   22.500   2.794E+00
   22.600   2.729E+00
   22.700   2.666E+00
   22.800   2.603E+00
   22.900   2.541E+00
   23.000   2.480E+00
   23.100   2.420E+00
   23.200   2.361E+00
   23.300   2.302E+00
   23.400   2.245E+00
   23.500   2.188E+00
   23.600   2.133E+00
   23.700   2.079E+00
   23.800   2.026E+00
   23.900   1.975E+00
   24.000   1.925E+00
   24.100   1.876E+00
   24.200   1.828E+00
   24.300   1.782E+00
   24.400   1.737E+00
   24.500   1.694E+00
   24.600   1.652E+00
   24.700   1.612E+00
   24.800   1.573E+00
   24.900   1.536E+00
   25.000   1.499E+00
   25.100   1.465E+00
   25.200   1.431E+00
   25.300   1.399E+00
   25.400   1.367E+00
   25.500   1.337E+00
   25.600   1.308E+00
   25.700   1.280E+00
   25.800   1.252E+00
   25.900   1.226E+00
   26.000   1.200E+00
   26.100   1.176E+00
   26.200   1.152E+00
   26.300   1.128E+00
   26.400   1.106E+00
   26.500   1.084E+00
   26.600   1.063E+00
   26.700   1.043E+00
   26.800   1.023E+00
   26.900   1.004E+00
   27.000   9.855E-01
   27.100   9.678E-01
   27.200   9.507E-01
   27.300   9.342E-01
   27.400   9.183E-01
   27.500   9.029E-01
   27.600   8.880E-01
   27.700   8.736E-01
   27.800   8.597E-01
   27.900   8.462E-01
   28.000   8.331E-01
   28.100   8.205E-01
   28.200   8.082E-01
   28.300   7.962E-01
   28.400   7.846E-01
   28.500   7.734E-01
   28.600   7.624E-01
   28.700   7.518E-01
   28.800   7.414E-01
   28.900   7.313E-01
   29.000   7.215E-01
   29.100   7.119E-01
   29.200   7.026E-01
   29.300   6.934E-01
   29.400   6.845E-01
   29.500   6.758E-01
   29.600   6.674E-01
   29.700   6.591E-01
   29.800   6.509E-01
   29.900   6.430E-01
   30.000   6.353E-01
 
 Z=  60 A= 151  D1M-QRPA-Inter
 E[MeV]  fQRPA[mb/MeV]
    0.100   2.305E-02
    0.200   3.094E-02
    0.300   3.655E-02
    0.400   4.166E-02
    0.500   4.653E-02
    0.600   5.118E-02
    0.700   5.563E-02
    0.800   5.989E-02
    0.900   6.402E-02
    1.000   6.809E-02
    1.100   7.215E-02
    1.200   7.628E-02
    1.300   8.052E-02
    1.400   8.493E-02
    1.500   8.952E-02
    1.600   9.432E-02
    1.700   9.934E-02
    1.800   1.046E-01
    1.900   1.101E-01
    2.000   1.159E-01
    2.100   1.220E-01
    2.200   1.286E-01
    2.300   1.356E-01
    2.400   1.431E-01
    2.500   1.514E-01
    2.600   1.603E-01
    2.700   1.701E-01
    2.800   1.807E-01
    2.900   1.923E-01
    3.000   2.048E-01
    3.100   2.182E-01
    3.200   2.325E-01
    3.300   2.477E-01
    3.400   2.636E-01
    3.500   2.802E-01
    3.600   2.972E-01
    3.700   3.148E-01
    3.800   3.329E-01
    3.900   3.516E-01
    4.000   3.712E-01
    4.100   3.917E-01
    4.200   4.133E-01
    4.300   4.359E-01
    4.400   4.596E-01
    4.500   4.845E-01
    4.600   5.104E-01
    4.700   5.373E-01
    4.800   5.655E-01
    4.900   5.948E-01
    5.000   6.252E-01
    5.100   6.568E-01
    5.200   6.896E-01
    5.300   7.236E-01
    5.400   7.590E-01
    5.500   7.959E-01
    5.600   8.347E-01
    5.700   8.754E-01
    5.800   9.183E-01
    5.900   9.633E-01
    6.000   1.010E+00
    6.100   1.059E+00
    6.200   1.109E+00
    6.300   1.161E+00
    6.400   1.214E+00
    6.500   1.268E+00
    6.600   1.324E+00
    6.700   1.382E+00
    6.800   1.441E+00
    6.900   1.504E+00
    7.000   1.569E+00
    7.100   1.639E+00
    7.200   1.712E+00
    7.300   1.791E+00
    7.400   1.875E+00
    7.500   1.965E+00
    7.600   2.061E+00
    7.700   2.164E+00
    7.800   2.274E+00
    7.900   2.391E+00
    8.000   2.517E+00
    8.100   2.652E+00
    8.200   2.796E+00
    8.300   2.951E+00
    8.400   3.117E+00
    8.500   3.296E+00
    8.600   3.488E+00
    8.700   3.697E+00
    8.800   3.923E+00
    8.900   4.170E+00
    9.000   4.439E+00
    9.100   4.733E+00
    9.200   5.056E+00
    9.300   5.409E+00
    9.400   5.797E+00
    9.500   6.222E+00
    9.600   6.688E+00
    9.700   7.198E+00
    9.800   7.754E+00
    9.900   8.359E+00
   10.000   9.015E+00
   10.100   9.718E+00
   10.200   1.047E+01
   10.300   1.125E+01
   10.400   1.206E+01
   10.500   1.286E+01
   10.600   1.363E+01
   10.700   1.435E+01
   10.800   1.498E+01
   10.900   1.549E+01
   11.000   1.588E+01
   11.100   1.613E+01
   11.200   1.628E+01
   11.300   1.632E+01
   11.400   1.630E+01
   11.500   1.622E+01
   11.600   1.611E+01
   11.700   1.598E+01
   11.800   1.586E+01
   11.900   1.573E+01
   12.000   1.562E+01
   12.100   1.553E+01
   12.200   1.545E+01
   12.300   1.540E+01
   12.400   1.536E+01
   12.500   1.534E+01
   12.600   1.534E+01
   12.700   1.534E+01
   12.800   1.537E+01
   12.900   1.540E+01
   13.000   1.544E+01
   13.100   1.548E+01
   13.200   1.553E+01
   13.300   1.559E+01
   13.400   1.564E+01
   13.500   1.569E+01
   13.600   1.574E+01
   13.700   1.578E+01
   13.800   1.582E+01
   13.900   1.586E+01
   14.000   1.589E+01
   14.100   1.592E+01
   14.200   1.596E+01
   14.300   1.601E+01
   14.400   1.607E+01
   14.500   1.614E+01
   14.600   1.622E+01
   14.700   1.631E+01
   14.800   1.640E+01
   14.900   1.648E+01
   15.000   1.654E+01
   15.100   1.656E+01
   15.200   1.653E+01
   15.300   1.645E+01
   15.400   1.630E+01
   15.500   1.609E+01
   15.600   1.581E+01
   15.700   1.548E+01
   15.800   1.511E+01
   15.900   1.471E+01
   16.000   1.428E+01
   16.100   1.385E+01
   16.200   1.341E+01
   16.300   1.298E+01
   16.400   1.255E+01
   16.500   1.213E+01
   16.600   1.172E+01
   16.700   1.133E+01
   16.800   1.094E+01
   16.900   1.057E+01
   17.000   1.021E+01
   17.100   9.864E+00
   17.200   9.530E+00
   17.300   9.207E+00
   17.400   8.894E+00
   17.500   8.589E+00
   17.600   8.293E+00
   17.700   8.004E+00
   17.800   7.723E+00
   17.900   7.451E+00
   18.000   7.188E+00
   18.100   6.937E+00
   18.200   6.698E+00
   18.300   6.471E+00
   18.400   6.257E+00
   18.500   6.055E+00
   18.600   5.866E+00
   18.700   5.688E+00
   18.800   5.520E+00
   18.900   5.362E+00
   19.000   5.211E+00
   19.100   5.067E+00
   19.200   4.929E+00
   19.300   4.795E+00
   19.400   4.665E+00
   19.500   4.537E+00
   19.600   4.411E+00
   19.700   4.287E+00
   19.800   4.163E+00
   19.900   4.041E+00
   20.000   3.919E+00
   20.100   3.797E+00
   20.200   3.677E+00
   20.300   3.558E+00
   20.400   3.442E+00
   20.500   3.328E+00
   20.600   3.217E+00
   20.700   3.109E+00
   20.800   3.005E+00
   20.900   2.904E+00
   21.000   2.808E+00
   21.100   2.715E+00
   21.200   2.627E+00
   21.300   2.544E+00
   21.400   2.465E+00
   21.500   2.390E+00
   21.600   2.319E+00
   21.700   2.252E+00
   21.800   2.187E+00
   21.900   2.124E+00
   22.000   2.063E+00
   22.100   2.004E+00
   22.200   1.947E+00
   22.300   1.891E+00
   22.400   1.837E+00
   22.500   1.785E+00
   22.600   1.735E+00
   22.700   1.686E+00
   22.800   1.639E+00
   22.900   1.594E+00
   23.000   1.551E+00
   23.100   1.509E+00
   23.200   1.469E+00
   23.300   1.430E+00
   23.400   1.393E+00
   23.500   1.357E+00
   23.600   1.323E+00
   23.700   1.290E+00
   23.800   1.258E+00
   23.900   1.228E+00
   24.000   1.198E+00
   24.100   1.170E+00
   24.200   1.142E+00
   24.300   1.116E+00
   24.400   1.090E+00
   24.500   1.066E+00
   24.600   1.042E+00
   24.700   1.019E+00
   24.800   9.974E-01
   24.900   9.762E-01
   25.000   9.558E-01
   25.100   9.361E-01
   25.200   9.171E-01
   25.300   8.987E-01
   25.400   8.810E-01
   25.500   8.638E-01
   25.600   8.472E-01
   25.700   8.311E-01
   25.800   8.155E-01
   25.900   8.004E-01
   26.000   7.858E-01
   26.100   7.716E-01
   26.200   7.578E-01
   26.300   7.444E-01
   26.400   7.314E-01
   26.500   7.188E-01
   26.600   7.066E-01
   26.700   6.947E-01
   26.800   6.832E-01
   26.900   6.720E-01
   27.000   6.612E-01
   27.100   6.507E-01
   27.200   6.405E-01
   27.300   6.306E-01
   27.400   6.210E-01
   27.500   6.117E-01
   27.600   6.027E-01
   27.700   5.939E-01
   27.800   5.853E-01
   27.900   5.770E-01
   28.000   5.689E-01
   28.100   5.610E-01
   28.200   5.534E-01
   28.300   5.459E-01
   28.400   5.386E-01
   28.500   5.315E-01
   28.600   5.245E-01
   28.700   5.178E-01
   28.800   5.112E-01
   28.900   5.047E-01
   29.000   4.984E-01
   29.100   4.922E-01
   29.200   4.862E-01
   29.300   4.803E-01
   29.400   4.745E-01
   29.500   4.689E-01
   29.600   4.634E-01
   29.700   4.579E-01
   29.800   4.526E-01
   29.900   4.475E-01
   30.000   4.424E-01
 
 Z=  60 A= 152  D1M-QRPA
   E[MeV]   fQRPA[mb/MeV]
    0.100   2.690E-02
    0.200   3.694E-02
    0.300   4.290E-02
    0.400   4.819E-02
    0.500   5.312E-02
    0.600   5.758E-02
    0.700   6.151E-02
    0.800   6.498E-02
    0.900   6.812E-02
    1.000   7.109E-02
    1.100   7.401E-02
    1.200   7.703E-02
    1.300   8.023E-02
    1.400   8.366E-02
    1.500   8.736E-02
    1.600   9.133E-02
    1.700   9.555E-02
    1.800   1.000E-01
    1.900   1.047E-01
    2.000   1.097E-01
    2.100   1.151E-01
    2.200   1.208E-01
    2.300   1.271E-01
    2.400   1.340E-01
    2.500   1.417E-01
    2.600   1.504E-01
    2.700   1.600E-01
    2.800   1.708E-01
    2.900   1.827E-01
    3.000   1.958E-01
    3.100   2.099E-01
    3.200   2.251E-01
    3.300   2.411E-01
    3.400   2.576E-01
    3.500   2.743E-01
    3.600   2.910E-01
    3.700   3.076E-01
    3.800   3.240E-01
    3.900   3.405E-01
    4.000   3.574E-01
    4.100   3.749E-01
    4.200   3.932E-01
    4.300   4.125E-01
    4.400   4.326E-01
    4.500   4.537E-01
    4.600   4.759E-01
    4.700   4.991E-01
    4.800   5.235E-01
    4.900   5.493E-01
    5.000   5.763E-01
    5.100   6.047E-01
    5.200   6.344E-01
    5.300   6.654E-01
    5.400   6.981E-01
    5.500   7.326E-01
    5.600   7.694E-01
    5.700   8.088E-01
    5.800   8.508E-01
    5.900   8.954E-01
    6.000   9.422E-01
    6.100   9.907E-01
    6.200   1.040E+00
    6.300   1.090E+00
    6.400   1.141E+00
    6.500   1.192E+00
    6.600   1.243E+00
    6.700   1.295E+00
    6.800   1.349E+00
    6.900   1.405E+00
    7.000   1.465E+00
    7.100   1.528E+00
    7.200   1.598E+00
    7.300   1.673E+00
    7.400   1.755E+00
    7.500   1.844E+00
    7.600   1.941E+00
    7.700   2.045E+00
    7.800   2.158E+00
    7.900   2.281E+00
    8.000   2.414E+00
    8.100   2.557E+00
    8.200   2.713E+00
    8.300   2.881E+00
    8.400   3.064E+00
    8.500   3.263E+00
    8.600   3.480E+00
    8.700   3.718E+00
    8.800   3.980E+00
    8.900   4.271E+00
    9.000   4.595E+00
    9.100   4.957E+00
    9.200   5.361E+00
    9.300   5.813E+00
    9.400   6.319E+00
    9.500   6.884E+00
    9.600   7.514E+00
    9.700   8.216E+00
    9.800   8.994E+00
    9.900   9.852E+00
   10.000   1.079E+01
   10.100   1.180E+01
   10.200   1.287E+01
   10.300   1.398E+01
   10.400   1.509E+01
   10.500   1.614E+01
   10.600   1.706E+01
   10.700   1.779E+01
   10.800   1.826E+01
   10.900   1.843E+01
   11.000   1.832E+01
   11.100   1.795E+01
   11.200   1.739E+01
   11.300   1.672E+01
   11.400   1.601E+01
   11.500   1.531E+01
   11.600   1.466E+01
   11.700   1.410E+01
   11.800   1.362E+01
   11.900   1.325E+01
   12.000   1.297E+01
   12.100   1.279E+01
   12.200   1.269E+01
   12.300   1.265E+01
   12.400   1.268E+01
   12.500   1.276E+01
   12.600   1.286E+01
   12.700   1.300E+01
   12.800   1.314E+01
   12.900   1.330E+01
   13.000   1.345E+01
   13.100   1.359E+01
   13.200   1.373E+01
   13.300   1.384E+01
   13.400   1.394E+01
   13.500   1.402E+01
   13.600   1.408E+01
   13.700   1.413E+01
   13.800   1.416E+01
   13.900   1.417E+01
   14.000   1.419E+01
   14.100   1.420E+01
   14.200   1.424E+01
   14.300   1.430E+01
   14.400   1.440E+01
   14.500   1.453E+01
   14.600   1.470E+01
   14.700   1.489E+01
   14.800   1.509E+01
   14.900   1.527E+01
   15.000   1.541E+01
   15.100   1.549E+01
   15.200   1.547E+01
   15.300   1.535E+01
   15.400   1.509E+01
   15.500   1.471E+01
   15.600   1.422E+01
   15.700   1.363E+01
   15.800   1.299E+01
   15.900   1.232E+01
   16.000   1.164E+01
   16.100   1.099E+01
   16.200   1.038E+01
   16.300   9.806E+00
   16.400   9.286E+00
   16.500   8.815E+00
   16.600   8.392E+00
   16.700   8.013E+00
   16.800   7.674E+00
   16.900   7.369E+00
   17.000   7.094E+00
   17.100   6.846E+00
   17.200   6.619E+00
   17.300   6.410E+00
   17.400   6.214E+00
   17.500   6.028E+00
   17.600   5.847E+00
   17.700   5.671E+00
   17.800   5.497E+00
   17.900   5.326E+00
   18.000   5.160E+00
   18.100   4.998E+00
   18.200   4.843E+00
   18.300   4.694E+00
   18.400   4.552E+00
   18.500   4.417E+00
   18.600   4.289E+00
   18.700   4.167E+00
   18.800   4.051E+00
   18.900   3.939E+00
   19.000   3.832E+00
   19.100   3.728E+00
   19.200   3.625E+00
   19.300   3.524E+00
   19.400   3.423E+00
   19.500   3.322E+00
   19.600   3.221E+00
   19.700   3.118E+00
   19.800   3.015E+00
   19.900   2.911E+00
   20.000   2.806E+00
   20.100   2.702E+00
   20.200   2.597E+00
   20.300   2.494E+00
   20.400   2.393E+00
   20.500   2.295E+00
   20.600   2.200E+00
   20.700   2.108E+00
   20.800   2.020E+00
   20.900   1.935E+00
   21.000   1.855E+00
   21.100   1.779E+00
   21.200   1.708E+00
   21.300   1.641E+00
   21.400   1.578E+00
   21.500   1.520E+00
   21.600   1.465E+00
   21.700   1.413E+00
   21.800   1.364E+00
   21.900   1.317E+00
   22.000   1.271E+00
   22.100   1.228E+00
   22.200   1.185E+00
   22.300   1.145E+00
   22.400   1.106E+00
   22.500   1.068E+00
   22.600   1.032E+00
   22.700   9.986E-01
   22.800   9.665E-01
   22.900   9.362E-01
   23.000   9.077E-01
   23.100   8.809E-01
   23.200   8.556E-01
   23.300   8.318E-01
   23.400   8.094E-01
   23.500   7.883E-01
   23.600   7.683E-01
   23.700   7.494E-01
   23.800   7.315E-01
   23.900   7.146E-01
   24.000   6.984E-01
   24.100   6.830E-01
   24.200   6.683E-01
   24.300   6.542E-01
   24.400   6.408E-01
   24.500   6.279E-01
   24.600   6.155E-01
   24.700   6.036E-01
   24.800   5.922E-01
   24.900   5.811E-01
   25.000   5.705E-01
   25.100   5.603E-01
   25.200   5.504E-01
   25.300   5.408E-01
   25.400   5.315E-01
   25.500   5.226E-01
   25.600   5.139E-01
   25.700   5.055E-01
   25.800   4.973E-01
   25.900   4.894E-01
   26.000   4.817E-01
   26.100   4.742E-01
   26.200   4.669E-01
   26.300   4.599E-01
   26.400   4.530E-01
   26.500   4.463E-01
   26.600   4.398E-01
   26.700   4.335E-01
   26.800   4.273E-01
   26.900   4.213E-01
   27.000   4.154E-01
   27.100   4.097E-01
   27.200   4.041E-01
   27.300   3.986E-01
   27.400   3.933E-01
   27.500   3.881E-01
   27.600   3.830E-01
   27.700   3.780E-01
   27.800   3.732E-01
   27.900   3.684E-01
   28.000   3.638E-01
   28.100   3.592E-01
   28.200   3.548E-01
   28.300   3.504E-01
   28.400   3.462E-01
   28.500   3.420E-01
   28.600   3.379E-01
   28.700   3.339E-01
   28.800   3.300E-01
   28.900   3.262E-01
   29.000   3.224E-01
   29.100   3.187E-01
   29.200   3.151E-01
   29.300   3.115E-01
   29.400   3.080E-01
   29.500   3.046E-01
   29.600   3.013E-01
   29.700   2.980E-01
   29.800   2.947E-01
   29.900   2.916E-01
   30.000   2.884E-01
 
 Z=  60 A= 153  D1M-QRPA-Inter
 E[MeV]  fQRPA[mb/MeV]
    0.100   6.145E-03
    0.200   1.416E-02
    0.300   2.224E-02
    0.400   3.026E-02
    0.500   3.791E-02
    0.600   4.490E-02
    0.700   5.107E-02
    0.800   5.640E-02
    0.900   6.098E-02
    1.000   6.498E-02
    1.100   6.857E-02
    1.200   7.193E-02
    1.300   7.522E-02
    1.400   7.853E-02
    1.500   8.195E-02
    1.600   8.553E-02
    1.700   8.928E-02
    1.800   9.323E-02
    1.900   9.738E-02
    2.000   1.018E-01
    2.100   1.064E-01
    2.200   1.113E-01
    2.300   1.167E-01
    2.400   1.225E-01
    2.500   1.289E-01
    2.600   1.359E-01
    2.700   1.436E-01
    2.800   1.520E-01
    2.900   1.613E-01
    3.000   1.714E-01
    3.100   1.823E-01
    3.200   1.941E-01
    3.300   2.067E-01
    3.400   2.201E-01
    3.500   2.342E-01
    3.600   2.489E-01
    3.700   2.642E-01
    3.800   2.802E-01
    3.900   2.970E-01
    4.000   3.145E-01
    4.100   3.330E-01
    4.200   3.525E-01
    4.300   3.729E-01
    4.400   3.941E-01
    4.500   4.162E-01
    4.600   4.390E-01
    4.700   4.625E-01
    4.800   4.867E-01
    4.900   5.115E-01
    5.000   5.370E-01
    5.100   5.633E-01
    5.200   5.903E-01
    5.300   6.183E-01
    5.400   6.474E-01
    5.500   6.781E-01
    5.600   7.106E-01
    5.700   7.453E-01
    5.800   7.822E-01
    5.900   8.215E-01
    6.000   8.629E-01
    6.100   9.063E-01
    6.200   9.516E-01
    6.300   9.984E-01
    6.400   1.047E+00
    6.500   1.097E+00
    6.600   1.149E+00
    6.700   1.203E+00
    6.800   1.260E+00
    6.900   1.319E+00
    7.000   1.380E+00
    7.100   1.446E+00
    7.200   1.514E+00
    7.300   1.587E+00
    7.400   1.664E+00
    7.500   1.746E+00
    7.600   1.833E+00
    7.700   1.925E+00
    7.800   2.023E+00
    7.900   2.128E+00
    8.000   2.241E+00
    8.100   2.362E+00
    8.200   2.494E+00
    8.300   2.636E+00
    8.400   2.790E+00
    8.500   2.957E+00
    8.600   3.140E+00
    8.700   3.340E+00
    8.800   3.559E+00
    8.900   3.801E+00
    9.000   4.068E+00
    9.100   4.364E+00
    9.200   4.693E+00
    9.300   5.057E+00
    9.400   5.462E+00
    9.500   5.912E+00
    9.600   6.412E+00
    9.700   6.967E+00
    9.800   7.583E+00
    9.900   8.263E+00
   10.000   9.010E+00
   10.100   9.824E+00
   10.200   1.070E+01
   10.300   1.164E+01
   10.400   1.261E+01
   10.500   1.359E+01
   10.600   1.455E+01
   10.700   1.544E+01
   10.800   1.622E+01
   10.900   1.684E+01
   11.000   1.728E+01
   11.100   1.751E+01
   11.200   1.755E+01
   11.300   1.742E+01
   11.400   1.715E+01
   11.500   1.678E+01
   11.600   1.634E+01
   11.700   1.589E+01
   11.800   1.545E+01
   11.900   1.506E+01
   12.000   1.472E+01
   12.100   1.445E+01
   12.200   1.425E+01
   12.300   1.413E+01
   12.400   1.408E+01
   12.500   1.409E+01
   12.600   1.415E+01
   12.700   1.426E+01
   12.800   1.441E+01
   12.900   1.458E+01
   13.000   1.476E+01
   13.100   1.494E+01
   13.200   1.512E+01
   13.300   1.529E+01
   13.400   1.544E+01
   13.500   1.556E+01
   13.600   1.565E+01
   13.700   1.572E+01
   13.800   1.576E+01
   13.900   1.579E+01
   14.000   1.580E+01
   14.100   1.581E+01
   14.200   1.582E+01
   14.300   1.586E+01
   14.400   1.591E+01
   14.500   1.597E+01
   14.600   1.603E+01
   14.700   1.607E+01
   14.800   1.609E+01
   14.900   1.606E+01
   15.000   1.596E+01
   15.100   1.579E+01
   15.200   1.553E+01
   15.300   1.520E+01
   15.400   1.479E+01
   15.500   1.432E+01
   15.600   1.381E+01
   15.700   1.326E+01
   15.800   1.271E+01
   15.900   1.215E+01
   16.000   1.161E+01
   16.100   1.108E+01
   16.200   1.059E+01
   16.300   1.012E+01
   16.400   9.674E+00
   16.500   9.260E+00
   16.600   8.871E+00
   16.700   8.504E+00
   16.800   8.156E+00
   16.900   7.824E+00
   17.000   7.503E+00
   17.100   7.190E+00
   17.200   6.885E+00
   17.300   6.586E+00
   17.400   6.293E+00
   17.500   6.008E+00
   17.600   5.732E+00
   17.700   5.465E+00
   17.800   5.209E+00
   17.900   4.966E+00
   18.000   4.736E+00
   18.100   4.520E+00
   18.200   4.318E+00
   18.300   4.129E+00
   18.400   3.953E+00
   18.500   3.789E+00
   18.600   3.637E+00
   18.700   3.495E+00
   18.800   3.363E+00
   18.900   3.239E+00
   19.000   3.122E+00
   19.100   3.012E+00
   19.200   2.907E+00
   19.300   2.808E+00
   19.400   2.712E+00
   19.500   2.620E+00
   19.600   2.531E+00
   19.700   2.445E+00
   19.800   2.362E+00
   19.900   2.281E+00
   20.000   2.202E+00
   20.100   2.125E+00
   20.200   2.050E+00
   20.300   1.977E+00
   20.400   1.907E+00
   20.500   1.840E+00
   20.600   1.775E+00
   20.700   1.713E+00
   20.800   1.653E+00
   20.900   1.596E+00
   21.000   1.542E+00
   21.100   1.490E+00
   21.200   1.441E+00
   21.300   1.395E+00
   21.400   1.351E+00
   21.500   1.309E+00
   21.600   1.270E+00
   21.700   1.233E+00
   21.800   1.197E+00
   21.900   1.163E+00
   22.000   1.130E+00
   22.100   1.098E+00
   22.200   1.067E+00
   22.300   1.037E+00
   22.400   1.009E+00
   22.500   9.813E-01
   22.600   9.549E-01
   22.700   9.296E-01
   22.800   9.055E-01
   22.900   8.825E-01
   23.000   8.605E-01
   23.100   8.396E-01
   23.200   8.197E-01
   23.300   8.007E-01
   23.400   7.826E-01
   23.500   7.653E-01
   23.600   7.488E-01
   23.700   7.330E-01
   23.800   7.179E-01
   23.900   7.034E-01
   24.000   6.895E-01
   24.100   6.761E-01
   24.200   6.632E-01
   24.300   6.508E-01
   24.400   6.388E-01
   24.500   6.273E-01
   24.600   6.161E-01
   24.700   6.054E-01
   24.800   5.949E-01
   24.900   5.848E-01
   25.000   5.750E-01
   25.100   5.655E-01
   25.200   5.563E-01
   25.300   5.474E-01
   25.400   5.387E-01
   25.500   5.302E-01
   25.600   5.220E-01
   25.700   5.141E-01
   25.800   5.063E-01
   25.900   4.987E-01
   26.000   4.914E-01
   26.100   4.842E-01
   26.200   4.772E-01
   26.300   4.704E-01
   26.400   4.638E-01
   26.500   4.573E-01
   26.600   4.510E-01
   26.700   4.448E-01
   26.800   4.388E-01
   26.900   4.329E-01
   27.000   4.271E-01
   27.100   4.215E-01
   27.200   4.160E-01
   27.300   4.106E-01
   27.400   4.054E-01
   27.500   4.002E-01
   27.600   3.952E-01
   27.700   3.903E-01
   27.800   3.855E-01
   27.900   3.807E-01
   28.000   3.761E-01
   28.100   3.716E-01
   28.200   3.672E-01
   28.300   3.628E-01
   28.400   3.585E-01
   28.500   3.544E-01
   28.600   3.503E-01
   28.700   3.463E-01
   28.800   3.423E-01
   28.900   3.385E-01
   29.000   3.347E-01
   29.100   3.309E-01
   29.200   3.273E-01
   29.300   3.237E-01
   29.400   3.202E-01
   29.500   3.167E-01
   29.600   3.133E-01
   29.700   3.100E-01
   29.800   3.067E-01
   29.900   3.035E-01
   30.000   3.003E-01
 
 Z=  60 A= 154  D1M-QRPA
   E[MeV]   fQRPA[mb/MeV]
    0.100   1.390E-03
    0.200   5.368E-03
    0.300   1.142E-02
    0.400   1.881E-02
    0.500   2.678E-02
    0.600   3.466E-02
    0.700   4.197E-02
    0.800   4.845E-02
    0.900   5.402E-02
    1.000   5.878E-02
    1.100   6.287E-02
    1.200   6.649E-02
    1.300   6.980E-02
    1.400   7.296E-02
    1.500   7.609E-02
    1.600   7.927E-02
    1.700   8.256E-02
    1.800   8.600E-02
    1.900   8.960E-02
    2.000   9.339E-02
    2.100   9.738E-02
    2.200   1.016E-01
    2.300   1.061E-01
    2.400   1.108E-01
    2.500   1.160E-01
    2.600   1.215E-01
    2.700   1.275E-01
    2.800   1.339E-01
    2.900   1.409E-01
    3.000   1.485E-01
    3.100   1.567E-01
    3.200   1.657E-01
    3.300   1.754E-01
    3.400   1.861E-01
    3.500   1.979E-01
    3.600   2.107E-01
    3.700   2.247E-01
    3.800   2.399E-01
    3.900   2.563E-01
    4.000   2.740E-01
    4.100   2.928E-01
    4.200   3.127E-01
    4.300   3.336E-01
    4.400   3.554E-01
    4.500   3.778E-01
    4.600   4.009E-01
    4.700   4.242E-01
    4.800   4.478E-01
    4.900   4.715E-01
    5.000   4.953E-01
    5.100   5.193E-01
    5.200   5.436E-01
    5.300   5.685E-01
    5.400   5.943E-01
    5.500   6.212E-01
    5.600   6.496E-01
    5.700   6.797E-01
    5.800   7.118E-01
    5.900   7.459E-01
    6.000   7.822E-01
    6.100   8.207E-01
    6.200   8.615E-01
    6.300   9.048E-01
    6.400   9.508E-01
    6.500   9.996E-01
    6.600   1.051E+00
    6.700   1.106E+00
    6.800   1.164E+00
    6.900   1.225E+00
    7.000   1.288E+00
    7.100   1.353E+00
    7.200   1.421E+00
    7.300   1.491E+00
    7.400   1.563E+00
    7.500   1.637E+00
    7.600   1.714E+00
    7.700   1.793E+00
    7.800   1.877E+00
    7.900   1.965E+00
    8.000   2.059E+00
    8.100   2.160E+00
    8.200   2.268E+00
    8.300   2.386E+00
    8.400   2.514E+00
    8.500   2.653E+00
    8.600   2.804E+00
    8.700   2.969E+00
    8.800   3.150E+00
    8.900   3.348E+00
    9.000   3.565E+00
    9.100   3.803E+00
    9.200   4.065E+00
    9.300   4.354E+00
    9.400   4.673E+00
    9.500   5.025E+00
    9.600   5.415E+00
    9.700   5.847E+00
    9.800   6.327E+00
    9.900   6.859E+00
   10.000   7.447E+00
   10.100   8.095E+00
   10.200   8.807E+00
   10.300   9.584E+00
   10.400   1.043E+01
   10.500   1.133E+01
   10.600   1.228E+01
   10.700   1.326E+01
   10.800   1.426E+01
   10.900   1.523E+01
   11.000   1.613E+01
   11.100   1.691E+01
   11.200   1.753E+01
   11.300   1.796E+01
   11.400   1.818E+01
   11.500   1.819E+01
   11.600   1.803E+01
   11.700   1.773E+01
   11.800   1.735E+01
   11.900   1.694E+01
   12.000   1.653E+01
   12.100   1.616E+01
   12.200   1.585E+01
   12.300   1.562E+01
   12.400   1.547E+01
   12.500   1.540E+01
   12.600   1.541E+01
   12.700   1.549E+01
   12.800   1.563E+01
   12.900   1.581E+01
   13.000   1.603E+01
   13.100   1.626E+01
   13.200   1.649E+01
   13.300   1.672E+01
   13.400   1.692E+01
   13.500   1.709E+01
   13.600   1.722E+01
   13.700   1.731E+01
   13.800   1.737E+01
   13.900   1.740E+01
   14.000   1.741E+01
   14.100   1.741E+01
   14.200   1.741E+01
   14.300   1.740E+01
   14.400   1.739E+01
   14.500   1.736E+01
   14.600   1.729E+01
   14.700   1.717E+01
   14.800   1.698E+01
   14.900   1.671E+01
   15.000   1.635E+01
   15.100   1.592E+01
   15.200   1.543E+01
   15.300   1.490E+01
   15.400   1.435E+01
   15.500   1.380E+01
   15.600   1.327E+01
   15.700   1.277E+01
   15.800   1.230E+01
   15.900   1.187E+01
   16.000   1.145E+01
   16.100   1.106E+01
   16.200   1.069E+01
   16.300   1.033E+01
   16.400   9.976E+00
   16.500   9.627E+00
   16.600   9.280E+00
   16.700   8.932E+00
   16.800   8.581E+00
   16.900   8.222E+00
   17.000   7.853E+00
   17.100   7.474E+00
   17.200   7.087E+00
   17.300   6.696E+00
   17.400   6.308E+00
   17.500   5.927E+00
   17.600   5.561E+00
   17.700   5.213E+00
   17.800   4.886E+00
   17.900   4.583E+00
   18.000   4.303E+00
   18.100   4.045E+00
   18.200   3.810E+00
   18.300   3.594E+00
   18.400   3.398E+00
   18.500   3.218E+00
   18.600   3.053E+00
   18.700   2.902E+00
   18.800   2.763E+00
   18.900   2.635E+00
   19.000   2.517E+00
   19.100   2.408E+00
   19.200   2.307E+00
   19.300   2.214E+00
   19.400   2.127E+00
   19.500   2.045E+00
   19.600   1.969E+00
   19.700   1.898E+00
   19.800   1.831E+00
   19.900   1.769E+00
   20.000   1.710E+00
   20.100   1.654E+00
   20.200   1.601E+00
   20.300   1.552E+00
   20.400   1.505E+00
   20.500   1.460E+00
   20.600   1.418E+00
   20.700   1.378E+00
   20.800   1.340E+00
   20.900   1.303E+00
   21.000   1.268E+00
   21.100   1.235E+00
   21.200   1.204E+00
   21.300   1.173E+00
   21.400   1.144E+00
   21.500   1.117E+00
   21.600   1.090E+00
   21.700   1.064E+00
   21.800   1.040E+00
   21.900   1.016E+00
   22.000   9.936E-01
   22.100   9.718E-01
   22.200   9.508E-01
   22.300   9.306E-01
   22.400   9.111E-01
   22.500   8.922E-01
   22.600   8.741E-01
   22.700   8.566E-01
   22.800   8.396E-01
   22.900   8.232E-01
   23.000   8.074E-01
   23.100   7.921E-01
   23.200   7.772E-01
   23.300   7.629E-01
   23.400   7.489E-01
   23.500   7.354E-01
   23.600   7.223E-01
   23.700   7.096E-01
   23.800   6.973E-01
   23.900   6.853E-01
   24.000   6.737E-01
   24.100   6.624E-01
   24.200   6.514E-01
   24.300   6.408E-01
   24.400   6.304E-01
   24.500   6.203E-01
   24.600   6.104E-01
   24.700   6.009E-01
   24.800   5.915E-01
   24.900   5.824E-01
   25.000   5.736E-01
   25.100   5.650E-01
   25.200   5.565E-01
   25.300   5.483E-01
   25.400   5.403E-01
   25.500   5.325E-01
   25.600   5.249E-01
   25.700   5.174E-01
   25.800   5.102E-01
   25.900   5.031E-01
   26.000   4.961E-01
   26.100   4.893E-01
   26.200   4.827E-01
   26.300   4.762E-01
   26.400   4.699E-01
   26.500   4.637E-01
   26.600   4.576E-01
   26.700   4.517E-01
   26.800   4.459E-01
   26.900   4.402E-01
   27.000   4.347E-01
   27.100   4.292E-01
   27.200   4.239E-01
   27.300   4.187E-01
   27.400   4.135E-01
   27.500   4.085E-01
   27.600   4.036E-01
   27.700   3.988E-01
   27.800   3.941E-01
   27.900   3.894E-01
   28.000   3.849E-01
   28.100   3.804E-01
   28.200   3.760E-01
   28.300   3.717E-01
   28.400   3.675E-01
   28.500   3.634E-01
   28.600   3.593E-01
   28.700   3.554E-01
   28.800   3.515E-01
   28.900   3.476E-01
   29.000   3.438E-01
   29.100   3.401E-01
   29.200   3.365E-01
   29.300   3.329E-01
   29.400   3.294E-01
   29.500   3.259E-01
   29.600   3.225E-01
   29.700   3.192E-01
   29.800   3.159E-01
   29.900   3.127E-01
   30.000   3.095E-01
 
 Z=  60 A= 155  D1M-QRPA-Inter
 E[MeV]  fQRPA[mb/MeV]
    0.100   1.494E-03
    0.200   5.320E-03
    0.300   1.060E-02
    0.400   1.673E-02
    0.500   2.328E-02
    0.600   2.990E-02
    0.700   3.636E-02
    0.800   4.255E-02
    0.900   4.842E-02
    1.000   5.401E-02
    1.100   5.937E-02
    1.200   6.458E-02
    1.300   6.972E-02
    1.400   7.485E-02
    1.500   8.003E-02
    1.600   8.531E-02
    1.700   9.074E-02
    1.800   9.632E-02
    1.900   1.021E-01
    2.000   1.081E-01
    2.100   1.143E-01
    2.200   1.208E-01
    2.300   1.276E-01
    2.400   1.347E-01
    2.500   1.423E-01
    2.600   1.503E-01
    2.700   1.589E-01
    2.800   1.681E-01
    2.900   1.780E-01
    3.000   1.886E-01
    3.100   2.000E-01
    3.200   2.123E-01
    3.300   2.256E-01
    3.400   2.400E-01
    3.500   2.555E-01
    3.600   2.722E-01
    3.700   2.903E-01
    3.800   3.096E-01
    3.900   3.303E-01
    4.000   3.522E-01
    4.100   3.755E-01
    4.200   3.999E-01
    4.300   4.254E-01
    4.400   4.519E-01
    4.500   4.792E-01
    4.600   5.073E-01
    4.700   5.358E-01
    4.800   5.649E-01
    4.900   5.944E-01
    5.000   6.243E-01
    5.100   6.548E-01
    5.200   6.860E-01
    5.300   7.180E-01
    5.400   7.513E-01
    5.500   7.860E-01
    5.600   8.224E-01
    5.700   8.607E-01
    5.800   9.012E-01
    5.900   9.439E-01
    6.000   9.891E-01
    6.100   1.037E+00
    6.200   1.087E+00
    6.300   1.140E+00
    6.400   1.196E+00
    6.500   1.255E+00
    6.600   1.317E+00
    6.700   1.383E+00
    6.800   1.451E+00
    6.900   1.523E+00
    7.000   1.598E+00
    7.100   1.675E+00
    7.200   1.755E+00
    7.300   1.838E+00
    7.400   1.923E+00
    7.500   2.012E+00
    7.600   2.104E+00
    7.700   2.201E+00
    7.800   2.302E+00
    7.900   2.408E+00
    8.000   2.521E+00
    8.100   2.642E+00
    8.200   2.771E+00
    8.300   2.910E+00
    8.400   3.060E+00
    8.500   3.222E+00
    8.600   3.398E+00
    8.700   3.588E+00
    8.800   3.794E+00
    8.900   4.018E+00
    9.000   4.262E+00
    9.100   4.528E+00
    9.200   4.818E+00
    9.300   5.134E+00
    9.400   5.479E+00
    9.500   5.856E+00
    9.600   6.269E+00
    9.700   6.719E+00
    9.800   7.212E+00
    9.900   7.750E+00
   10.000   8.335E+00
   10.100   8.969E+00
   10.200   9.653E+00
   10.300   1.039E+01
   10.400   1.116E+01
   10.500   1.198E+01
   10.600   1.283E+01
   10.700   1.369E+01
   10.800   1.455E+01
   10.900   1.538E+01
   11.000   1.616E+01
   11.100   1.684E+01
   11.200   1.741E+01
   11.300   1.783E+01
   11.400   1.810E+01
   11.500   1.822E+01
   11.600   1.820E+01
   11.700   1.807E+01
   11.800   1.786E+01
   11.900   1.760E+01
   12.000   1.732E+01
   12.100   1.704E+01
   12.200   1.680E+01
   12.300   1.659E+01
   12.400   1.644E+01
   12.500   1.634E+01
   12.600   1.629E+01
   12.700   1.630E+01
   12.800   1.636E+01
   12.900   1.645E+01
   13.000   1.657E+01
   13.100   1.671E+01
   13.200   1.687E+01
   13.300   1.702E+01
   13.400   1.717E+01
   13.500   1.731E+01
   13.600   1.742E+01
   13.700   1.751E+01
   13.800   1.758E+01
   13.900   1.762E+01
   14.000   1.764E+01
   14.100   1.764E+01
   14.200   1.763E+01
   14.300   1.760E+01
   14.400   1.756E+01
   14.500   1.750E+01
   14.600   1.741E+01
   14.700   1.728E+01
   14.800   1.711E+01
   14.900   1.690E+01
   15.000   1.664E+01
   15.100   1.634E+01
   15.200   1.600E+01
   15.300   1.564E+01
   15.400   1.527E+01
   15.500   1.489E+01
   15.600   1.452E+01
   15.700   1.416E+01
   15.800   1.381E+01
   15.900   1.348E+01
   16.000   1.315E+01
   16.100   1.283E+01
   16.200   1.252E+01
   16.300   1.221E+01
   16.400   1.190E+01
   16.500   1.159E+01
   16.600   1.127E+01
   16.700   1.095E+01
   16.800   1.062E+01
   16.900   1.029E+01
   17.000   9.940E+00
   17.100   9.584E+00
   17.200   9.221E+00
   17.300   8.852E+00
   17.400   8.481E+00
   17.500   8.113E+00
   17.600   7.753E+00
   17.700   7.402E+00
   17.800   7.065E+00
   17.900   6.743E+00
   18.000   6.437E+00
   18.100   6.147E+00
   18.200   5.873E+00
   18.300   5.614E+00
   18.400   5.370E+00
   18.500   5.139E+00
   18.600   4.920E+00
   18.700   4.714E+00
   18.800   4.519E+00
   18.900   4.334E+00
   19.000   4.159E+00
   19.100   3.993E+00
   19.200   3.836E+00
   19.300   3.686E+00
   19.400   3.544E+00
   19.500   3.409E+00
   19.600   3.281E+00
   19.700   3.160E+00
   19.800   3.044E+00
   19.900   2.935E+00
   20.000   2.831E+00
   20.100   2.732E+00
   20.200   2.637E+00
   20.300   2.548E+00
   20.400   2.463E+00
   20.500   2.382E+00
   20.600   2.305E+00
   20.700   2.231E+00
   20.800   2.161E+00
   20.900   2.094E+00
   21.000   2.030E+00
   21.100   1.969E+00
   21.200   1.911E+00
   21.300   1.855E+00
   21.400   1.801E+00
   21.500   1.750E+00
   21.600   1.701E+00
   21.700   1.655E+00
   21.800   1.610E+00
   21.900   1.568E+00
   22.000   1.527E+00
   22.100   1.488E+00
   22.200   1.451E+00
   22.300   1.415E+00
   22.400   1.381E+00
   22.500   1.348E+00
   22.600   1.317E+00
   22.700   1.286E+00
   22.800   1.258E+00
   22.900   1.230E+00
   23.000   1.203E+00
   23.100   1.177E+00
   23.200   1.153E+00
   23.300   1.129E+00
   23.400   1.106E+00
   23.500   1.084E+00
   23.600   1.062E+00
   23.700   1.042E+00
   23.800   1.022E+00
   23.900   1.003E+00
   24.000   9.840E-01
   24.100   9.660E-01
   24.200   9.485E-01
   24.300   9.316E-01
   24.400   9.152E-01
   24.500   8.993E-01
   24.600   8.839E-01
   24.700   8.689E-01
   24.800   8.544E-01
   24.900   8.402E-01
   25.000   8.265E-01
   25.100   8.132E-01
   25.200   8.002E-01
   25.300   7.876E-01
   25.400   7.753E-01
   25.500   7.634E-01
   25.600   7.517E-01
   25.700   7.404E-01
   25.800   7.294E-01
   25.900   7.186E-01
   26.000   7.081E-01
   26.100   6.978E-01
   26.200   6.879E-01
   26.300   6.781E-01
   26.400   6.686E-01
   26.500   6.593E-01
   26.600   6.502E-01
   26.700   6.413E-01
   26.800   6.327E-01
   26.900   6.242E-01
   27.000   6.159E-01
   27.100   6.078E-01
   27.200   5.999E-01
   27.300   5.922E-01
   27.400   5.846E-01
   27.500   5.772E-01
   27.600   5.699E-01
   27.700   5.628E-01
   27.800   5.559E-01
   27.900   5.491E-01
   28.000   5.424E-01
   28.100   5.358E-01
   28.200   5.294E-01
   28.300   5.231E-01
   28.400   5.170E-01
   28.500   5.109E-01
   28.600   5.050E-01
   28.700   4.992E-01
   28.800   4.935E-01
   28.900   4.879E-01
   29.000   4.824E-01
   29.100   4.770E-01
   29.200   4.718E-01
   29.300   4.666E-01
   29.400   4.615E-01
   29.500   4.565E-01
   29.600   4.516E-01
   29.700   4.467E-01
   29.800   4.420E-01
   29.900   4.373E-01
   30.000   4.328E-01
 
 Z=  60 A= 156  D1M-QRPA
   E[MeV]   fQRPA[mb/MeV]
    0.100   1.532E-03
    0.200   5.029E-03
    0.300   9.382E-03
    0.400   1.420E-02
    0.500   1.931E-02
    0.600   2.460E-02
    0.700   3.005E-02
    0.800   3.564E-02
    0.900   4.140E-02
    1.000   4.734E-02
    1.100   5.348E-02
    1.200   5.984E-02
    1.300   6.642E-02
    1.400   7.324E-02
    1.500   8.029E-02
    1.600   8.758E-02
    1.700   9.511E-02
    1.800   1.029E-01
    1.900   1.110E-01
    2.000   1.193E-01
    2.100   1.280E-01
    2.200   1.369E-01
    2.300   1.463E-01
    2.400   1.562E-01
    2.500   1.665E-01
    2.600   1.774E-01
    2.700   1.890E-01
    2.800   2.013E-01
    2.900   2.145E-01
    3.000   2.285E-01
    3.100   2.435E-01
    3.200   2.596E-01
    3.300   2.767E-01
    3.400   2.951E-01
    3.500   3.147E-01
    3.600   3.355E-01
    3.700   3.577E-01
    3.800   3.811E-01
    3.900   4.059E-01
    4.000   4.320E-01
    4.100   4.593E-01
    4.200   4.879E-01
    4.300   5.175E-01
    4.400   5.482E-01
    4.500   5.798E-01
    4.600   6.123E-01
    4.700   6.456E-01
    4.800   6.797E-01
    4.900   7.147E-01
    5.000   7.506E-01
    5.100   7.875E-01
    5.200   8.256E-01
    5.300   8.650E-01
    5.400   9.060E-01
    5.500   9.486E-01
    5.600   9.931E-01
    5.700   1.040E+00
    5.800   1.088E+00
    5.900   1.139E+00
    6.000   1.193E+00
    6.100   1.249E+00
    6.200   1.308E+00
    6.300   1.370E+00
    6.400   1.435E+00
    6.500   1.504E+00
    6.600   1.575E+00
    6.700   1.649E+00
    6.800   1.726E+00
    6.900   1.807E+00
    7.000   1.891E+00
    7.100   1.977E+00
    7.200   2.067E+00
    7.300   2.161E+00
    7.400   2.258E+00
    7.500   2.359E+00
    7.600   2.465E+00
    7.700   2.576E+00
    7.800   2.692E+00
    7.900   2.815E+00
    8.000   2.945E+00
    8.100   3.083E+00
    8.200   3.229E+00
    8.300   3.386E+00
    8.400   3.554E+00
    8.500   3.734E+00
    8.600   3.927E+00
    8.700   4.135E+00
    8.800   4.359E+00
    8.900   4.601E+00
    9.000   4.861E+00
    9.100   5.142E+00
    9.200   5.446E+00
    9.300   5.774E+00
    9.400   6.128E+00
    9.500   6.510E+00
    9.600   6.922E+00
    9.700   7.365E+00
    9.800   7.842E+00
    9.900   8.353E+00
   10.000   8.898E+00
   10.100   9.478E+00
   10.200   1.009E+01
   10.300   1.073E+01
   10.400   1.140E+01
   10.500   1.209E+01
   10.600   1.279E+01
   10.700   1.349E+01
   10.800   1.417E+01
   10.900   1.483E+01
   11.000   1.544E+01
   11.100   1.600E+01
   11.200   1.648E+01
   11.300   1.688E+01
   11.400   1.719E+01
   11.500   1.740E+01
   11.600   1.753E+01
   11.700   1.756E+01
   11.800   1.753E+01
   11.900   1.744E+01
   12.000   1.731E+01
   12.100   1.715E+01
   12.200   1.698E+01
   12.300   1.681E+01
   12.400   1.666E+01
   12.500   1.653E+01
   12.600   1.643E+01
   12.700   1.636E+01
   12.800   1.633E+01
   12.900   1.632E+01
   13.000   1.634E+01
   13.100   1.639E+01
   13.200   1.646E+01
   13.300   1.654E+01
   13.400   1.663E+01
   13.500   1.672E+01
   13.600   1.681E+01
   13.700   1.689E+01
   13.800   1.696E+01
   13.900   1.701E+01
   14.000   1.704E+01
   14.100   1.705E+01
   14.200   1.703E+01
   14.300   1.698E+01
   14.400   1.691E+01
   14.500   1.682E+01
   14.600   1.671E+01
   14.700   1.659E+01
   14.800   1.645E+01
   14.900   1.630E+01
   15.000   1.615E+01
   15.100   1.599E+01
   15.200   1.583E+01
   15.300   1.566E+01
   15.400   1.549E+01
   15.500   1.532E+01
   15.600   1.515E+01
   15.700   1.497E+01
   15.800   1.479E+01
   15.900   1.460E+01
   16.000   1.440E+01
   16.100   1.420E+01
   16.200   1.399E+01
   16.300   1.377E+01
   16.400   1.354E+01
   16.500   1.330E+01
   16.600   1.306E+01
   16.700   1.280E+01
   16.800   1.254E+01
   16.900   1.227E+01
   17.000   1.200E+01
   17.100   1.172E+01
   17.200   1.144E+01
   17.300   1.116E+01
   17.400   1.088E+01
   17.500   1.059E+01
   17.600   1.031E+01
   17.700   1.003E+01
   17.800   9.745E+00
   17.900   9.465E+00
   18.000   9.186E+00
   18.100   8.910E+00
   18.200   8.636E+00
   18.300   8.364E+00
   18.400   8.095E+00
   18.500   7.828E+00
   18.600   7.565E+00
   18.700   7.305E+00
   18.800   7.050E+00
   18.900   6.800E+00
   19.000   6.554E+00
   19.100   6.315E+00
   19.200   6.081E+00
   19.300   5.855E+00
   19.400   5.635E+00
   19.500   5.422E+00
   19.600   5.216E+00
   19.700   5.018E+00
   19.800   4.828E+00
   19.900   4.645E+00
   20.000   4.470E+00
   20.100   4.303E+00
   20.200   4.143E+00
   20.300   3.991E+00
   20.400   3.845E+00
   20.500   3.706E+00
   20.600   3.574E+00
   20.700   3.447E+00
   20.800   3.326E+00
   20.900   3.210E+00
   21.000   3.100E+00
   21.100   2.994E+00
   21.200   2.893E+00
   21.300   2.797E+00
   21.400   2.705E+00
   21.500   2.617E+00
   21.600   2.534E+00
   21.700   2.454E+00
   21.800   2.378E+00
   21.900   2.306E+00
   22.000   2.238E+00
   22.100   2.173E+00
   22.200   2.111E+00
   22.300   2.052E+00
   22.400   1.996E+00
   22.500   1.942E+00
   22.600   1.891E+00
   22.700   1.843E+00
   22.800   1.797E+00
   22.900   1.752E+00
   23.000   1.710E+00
   23.100   1.669E+00
   23.200   1.631E+00
   23.300   1.593E+00
   23.400   1.558E+00
   23.500   1.523E+00
   23.600   1.491E+00
   23.700   1.459E+00
   23.800   1.428E+00
   23.900   1.399E+00
   24.000   1.371E+00
   24.100   1.344E+00
   24.200   1.317E+00
   24.300   1.292E+00
   24.400   1.267E+00
   24.500   1.244E+00
   24.600   1.221E+00
   24.700   1.199E+00
   24.800   1.177E+00
   24.900   1.156E+00
   25.000   1.136E+00
   25.100   1.117E+00
   25.200   1.098E+00
   25.300   1.079E+00
   25.400   1.061E+00
   25.500   1.044E+00
   25.600   1.027E+00
   25.700   1.011E+00
   25.800   9.946E-01
   25.900   9.791E-01
   26.000   9.640E-01
   26.100   9.492E-01
   26.200   9.349E-01
   26.300   9.210E-01
   26.400   9.074E-01
   26.500   8.941E-01
   26.600   8.812E-01
   26.700   8.686E-01
   26.800   8.563E-01
   26.900   8.443E-01
   27.000   8.325E-01
   27.100   8.211E-01
   27.200   8.099E-01
   27.300   7.990E-01
   27.400   7.883E-01
   27.500   7.779E-01
   27.600   7.677E-01
   27.700   7.577E-01
   27.800   7.480E-01
   27.900   7.384E-01
   28.000   7.291E-01
   28.100   7.199E-01
   28.200   7.110E-01
   28.300   7.022E-01
   28.400   6.936E-01
   28.500   6.852E-01
   28.600   6.770E-01
   28.700   6.689E-01
   28.800   6.610E-01
   28.900   6.533E-01
   29.000   6.457E-01
   29.100   6.382E-01
   29.200   6.309E-01
   29.300   6.237E-01
   29.400   6.167E-01
   29.500   6.098E-01
   29.600   6.030E-01
   29.700   5.964E-01
   29.800   5.898E-01
   29.900   5.834E-01
   30.000   5.771E-01
 
