 Z=  61 A= 143  D1M-QRPA-Inter
 E[MeV]  fQRPA[mb/MeV]
    0.100   7.895E-05
    0.200   3.159E-04
    0.300   7.111E-04
    0.400   1.265E-03
    0.500   1.978E-03
    0.600   2.851E-03
    0.700   3.886E-03
    0.800   5.083E-03
    0.900   6.443E-03
    1.000   7.969E-03
    1.100   9.661E-03
    1.200   1.152E-02
    1.300   1.356E-02
    1.400   1.576E-02
    1.500   1.814E-02
    1.600   2.070E-02
    1.700   2.345E-02
    1.800   2.637E-02
    1.900   2.949E-02
    2.000   3.280E-02
    2.100   3.630E-02
    2.200   4.001E-02
    2.300   4.392E-02
    2.400   4.804E-02
    2.500   5.237E-02
    2.600   5.693E-02
    2.700   6.171E-02
    2.800   6.673E-02
    2.900   7.198E-02
    3.000   7.748E-02
    3.100   8.323E-02
    3.200   8.924E-02
    3.300   9.552E-02
    3.400   1.021E-01
    3.500   1.089E-01
    3.600   1.161E-01
    3.700   1.235E-01
    3.800   1.313E-01
    3.900   1.393E-01
    4.000   1.478E-01
    4.100   1.566E-01
    4.200   1.657E-01
    4.300   1.752E-01
    4.400   1.851E-01
    4.500   1.955E-01
    4.600   2.062E-01
    4.700   2.174E-01
    4.800   2.290E-01
    4.900   2.412E-01
    5.000   2.538E-01
    5.100   2.670E-01
    5.200   2.807E-01
    5.300   2.949E-01
    5.400   3.098E-01
    5.500   3.253E-01
    5.600   3.415E-01
    5.700   3.583E-01
    5.800   3.758E-01
    5.900   3.942E-01
    6.000   4.133E-01
    6.100   4.332E-01
    6.200   4.540E-01
    6.300   4.757E-01
    6.400   4.984E-01
    6.500   5.221E-01
    6.600   5.469E-01
    6.700   5.728E-01
    6.800   5.999E-01
    6.900   6.283E-01
    7.000   6.580E-01
    7.100   6.891E-01
    7.200   7.217E-01
    7.300   7.559E-01
    7.400   7.918E-01
    7.500   8.295E-01
    7.600   8.690E-01
    7.700   9.106E-01
    7.800   9.542E-01
    7.900   1.000E+00
    8.000   1.049E+00
    8.100   1.099E+00
    8.200   1.153E+00
    8.300   1.210E+00
    8.400   1.269E+00
    8.500   1.332E+00
    8.600   1.398E+00
    8.700   1.468E+00
    8.800   1.542E+00
    8.900   1.620E+00
    9.000   1.702E+00
    9.100   1.789E+00
    9.200   1.880E+00
    9.300   1.977E+00
    9.400   2.079E+00
    9.500   2.186E+00
    9.600   2.300E+00
    9.700   2.419E+00
    9.800   2.544E+00
    9.900   2.676E+00
   10.000   2.814E+00
   10.100   2.959E+00
   10.200   3.111E+00
   10.300   3.271E+00
   10.400   3.438E+00
   10.500   3.612E+00
   10.600   3.795E+00
   10.700   3.986E+00
   10.800   4.185E+00
   10.900   4.394E+00
   11.000   4.612E+00
   11.100   4.840E+00
   11.200   5.080E+00
   11.300   5.331E+00
   11.400   5.594E+00
   11.500   5.871E+00
   11.600   6.161E+00
   11.700   6.467E+00
   11.800   6.789E+00
   11.900   7.128E+00
   12.000   7.485E+00
   12.100   7.860E+00
   12.200   8.256E+00
   12.300   8.672E+00
   12.400   9.109E+00
   12.500   9.569E+00
   12.600   1.005E+01
   12.700   1.056E+01
   12.800   1.109E+01
   12.900   1.165E+01
   13.000   1.224E+01
   13.100   1.285E+01
   13.200   1.349E+01
   13.300   1.415E+01
   13.400   1.484E+01
   13.500   1.555E+01
   13.600   1.627E+01
   13.700   1.701E+01
   13.800   1.776E+01
   13.900   1.851E+01
   14.000   1.925E+01
   14.100   1.998E+01
   14.200   2.068E+01
   14.300   2.135E+01
   14.400   2.197E+01
   14.500   2.255E+01
   14.600   2.306E+01
   14.700   2.350E+01
   14.800   2.387E+01
   14.900   2.416E+01
   15.000   2.436E+01
   15.100   2.447E+01
   15.200   2.450E+01
   15.300   2.443E+01
   15.400   2.428E+01
   15.500   2.405E+01
   15.600   2.374E+01
   15.700   2.335E+01
   15.800   2.289E+01
   15.900   2.238E+01
   16.000   2.181E+01
   16.100   2.119E+01
   16.200   2.054E+01
   16.300   1.986E+01
   16.400   1.917E+01
   16.500   1.846E+01
   16.600   1.775E+01
   16.700   1.705E+01
   16.800   1.635E+01
   16.900   1.567E+01
   17.000   1.501E+01
   17.100   1.437E+01
   17.200   1.376E+01
   17.300   1.316E+01
   17.400   1.260E+01
   17.500   1.206E+01
   17.600   1.154E+01
   17.700   1.105E+01
   17.800   1.058E+01
   17.900   1.014E+01
   18.000   9.715E+00
   18.100   9.313E+00
   18.200   8.930E+00
   18.300   8.566E+00
   18.400   8.221E+00
   18.500   7.892E+00
   18.600   7.580E+00
   18.700   7.283E+00
   18.800   7.000E+00
   18.900   6.732E+00
   19.000   6.478E+00
   19.100   6.235E+00
   19.200   6.006E+00
   19.300   5.787E+00
   19.400   5.580E+00
   19.500   5.383E+00
   19.600   5.195E+00
   19.700   5.017E+00
   19.800   4.848E+00
   19.900   4.687E+00
   20.000   4.534E+00
   20.100   4.389E+00
   20.200   4.250E+00
   20.300   4.118E+00
   20.400   3.992E+00
   20.500   3.872E+00
   20.600   3.757E+00
   20.700   3.648E+00
   20.800   3.543E+00
   20.900   3.443E+00
   21.000   3.348E+00
   21.100   3.256E+00
   21.200   3.169E+00
   21.300   3.085E+00
   21.400   3.004E+00
   21.500   2.927E+00
   21.600   2.853E+00
   21.700   2.782E+00
   21.800   2.714E+00
   21.900   2.648E+00
   22.000   2.585E+00
   22.100   2.524E+00
   22.200   2.465E+00
   22.300   2.409E+00
   22.400   2.355E+00
   22.500   2.302E+00
   22.600   2.252E+00
   22.700   2.203E+00
   22.800   2.156E+00
   22.900   2.110E+00
   23.000   2.066E+00
   23.100   2.024E+00
   23.200   1.982E+00
   23.300   1.943E+00
   23.400   1.904E+00
   23.500   1.867E+00
   23.600   1.831E+00
   23.700   1.796E+00
   23.800   1.762E+00
   23.900   1.729E+00
   24.000   1.697E+00
   24.100   1.666E+00
   24.200   1.636E+00
   24.300   1.606E+00
   24.400   1.578E+00
   24.500   1.550E+00
   24.600   1.524E+00
   24.700   1.497E+00
   24.800   1.472E+00
   24.900   1.447E+00
   25.000   1.423E+00
   25.100   1.400E+00
   25.200   1.377E+00
   25.300   1.355E+00
   25.400   1.334E+00
   25.500   1.312E+00
   25.600   1.292E+00
   25.700   1.272E+00
   25.800   1.253E+00
   25.900   1.233E+00
   26.000   1.215E+00
   26.100   1.197E+00
   26.200   1.179E+00
   26.300   1.162E+00
   26.400   1.145E+00
   26.500   1.129E+00
   26.600   1.113E+00
   26.700   1.097E+00
   26.800   1.082E+00
   26.900   1.067E+00
   27.000   1.052E+00
   27.100   1.038E+00
   27.200   1.023E+00
   27.300   1.010E+00
   27.400   9.963E-01
   27.500   9.832E-01
   27.600   9.703E-01
   27.700   9.577E-01
   27.800   9.454E-01
   27.900   9.333E-01
   28.000   9.215E-01
   28.100   9.099E-01
   28.200   8.986E-01
   28.300   8.875E-01
   28.400   8.766E-01
   28.500   8.659E-01
   28.600   8.554E-01
   28.700   8.451E-01
   28.800   8.351E-01
   28.900   8.252E-01
   29.000   8.155E-01
   29.100   8.060E-01
   29.200   7.967E-01
   29.300   7.875E-01
   29.400   7.785E-01
   29.500   7.697E-01
   29.600   7.610E-01
   29.700   7.525E-01
   29.800   7.442E-01
   29.900   7.360E-01
   30.000   7.279E-01
 
 Z=  61 A= 147  D1M-QRPA-Inter
 E[MeV]  fQRPA[mb/MeV]
    0.100   1.704E-04
    0.200   6.816E-04
    0.300   1.534E-03
    0.400   2.729E-03
    0.500   4.266E-03
    0.600   6.148E-03
    0.700   8.374E-03
    0.800   1.095E-02
    0.900   1.387E-02
    1.000   1.714E-02
    1.100   2.076E-02
    1.200   2.474E-02
    1.300   2.907E-02
    1.400   3.375E-02
    1.500   3.879E-02
    1.600   4.419E-02
    1.700   4.995E-02
    1.800   5.607E-02
    1.900   6.255E-02
    2.000   6.940E-02
    2.100   7.663E-02
    2.200   8.422E-02
    2.300   9.220E-02
    2.400   1.006E-01
    2.500   1.093E-01
    2.600   1.185E-01
    2.700   1.281E-01
    2.800   1.381E-01
    2.900   1.485E-01
    3.000   1.594E-01
    3.100   1.707E-01
    3.200   1.826E-01
    3.300   1.949E-01
    3.400   2.078E-01
    3.500   2.212E-01
    3.600   2.351E-01
    3.700   2.496E-01
    3.800   2.648E-01
    3.900   2.806E-01
    4.000   2.970E-01
    4.100   3.141E-01
    4.200   3.319E-01
    4.300   3.505E-01
    4.400   3.698E-01
    4.500   3.900E-01
    4.600   4.110E-01
    4.700   4.329E-01
    4.800   4.557E-01
    4.900   4.795E-01
    5.000   5.043E-01
    5.100   5.301E-01
    5.200   5.571E-01
    5.300   5.851E-01
    5.400   6.144E-01
    5.500   6.450E-01
    5.600   6.768E-01
    5.700   7.100E-01
    5.800   7.446E-01
    5.900   7.808E-01
    6.000   8.184E-01
    6.100   8.578E-01
    6.200   8.988E-01
    6.300   9.416E-01
    6.400   9.863E-01
    6.500   1.033E+00
    6.600   1.082E+00
    6.700   1.132E+00
    6.800   1.185E+00
    6.900   1.241E+00
    7.000   1.298E+00
    7.100   1.359E+00
    7.200   1.422E+00
    7.300   1.487E+00
    7.400   1.556E+00
    7.500   1.627E+00
    7.600   1.702E+00
    7.700   1.780E+00
    7.800   1.862E+00
    7.900   1.947E+00
    8.000   2.035E+00
    8.100   2.128E+00
    8.200   2.225E+00
    8.300   2.326E+00
    8.400   2.432E+00
    8.500   2.543E+00
    8.600   2.658E+00
    8.700   2.779E+00
    8.800   2.905E+00
    8.900   3.037E+00
    9.000   3.175E+00
    9.100   3.319E+00
    9.200   3.470E+00
    9.300   3.628E+00
    9.400   3.794E+00
    9.500   3.967E+00
    9.600   4.148E+00
    9.700   4.337E+00
    9.800   4.536E+00
    9.900   4.744E+00
   10.000   4.961E+00
   10.100   5.188E+00
   10.200   5.426E+00
   10.300   5.675E+00
   10.400   5.936E+00
   10.500   6.208E+00
   10.600   6.493E+00
   10.700   6.791E+00
   10.800   7.103E+00
   10.900   7.428E+00
   11.000   7.767E+00
   11.100   8.122E+00
   11.200   8.492E+00
   11.300   8.877E+00
   11.400   9.278E+00
   11.500   9.694E+00
   11.600   1.013E+01
   11.700   1.058E+01
   11.800   1.104E+01
   11.900   1.152E+01
   12.000   1.201E+01
   12.100   1.252E+01
   12.200   1.304E+01
   12.300   1.357E+01
   12.400   1.411E+01
   12.500   1.465E+01
   12.600   1.520E+01
   12.700   1.575E+01
   12.800   1.630E+01
   12.900   1.684E+01
   13.000   1.737E+01
   13.100   1.788E+01
   13.200   1.838E+01
   13.300   1.885E+01
   13.400   1.930E+01
   13.500   1.972E+01
   13.600   2.010E+01
   13.700   2.044E+01
   13.800   2.075E+01
   13.900   2.101E+01
   14.000   2.123E+01
   14.100   2.140E+01
   14.200   2.153E+01
   14.300   2.160E+01
   14.400   2.164E+01
   14.500   2.162E+01
   14.600   2.157E+01
   14.700   2.146E+01
   14.800   2.132E+01
   14.900   2.113E+01
   15.000   2.090E+01
   15.100   2.064E+01
   15.200   2.034E+01
   15.300   2.001E+01
   15.400   1.965E+01
   15.500   1.926E+01
   15.600   1.885E+01
   15.700   1.842E+01
   15.800   1.797E+01
   15.900   1.751E+01
   16.000   1.704E+01
   16.100   1.656E+01
   16.200   1.608E+01
   16.300   1.560E+01
   16.400   1.512E+01
   16.500   1.464E+01
   16.600   1.417E+01
   16.700   1.371E+01
   16.800   1.326E+01
   16.900   1.282E+01
   17.000   1.239E+01
   17.100   1.197E+01
   17.200   1.157E+01
   17.300   1.118E+01
   17.400   1.080E+01
   17.500   1.044E+01
   17.600   1.009E+01
   17.700   9.752E+00
   17.800   9.429E+00
   17.900   9.120E+00
   18.000   8.823E+00
   18.100   8.538E+00
   18.200   8.265E+00
   18.300   8.004E+00
   18.400   7.753E+00
   18.500   7.513E+00
   18.600   7.283E+00
   18.700   7.062E+00
   18.800   6.851E+00
   18.900   6.649E+00
   19.000   6.455E+00
   19.100   6.269E+00
   19.200   6.091E+00
   19.300   5.920E+00
   19.400   5.756E+00
   19.500   5.598E+00
   19.600   5.447E+00
   19.700   5.302E+00
   19.800   5.162E+00
   19.900   5.028E+00
   20.000   4.899E+00
   20.100   4.775E+00
   20.200   4.656E+00
   20.300   4.541E+00
   20.400   4.431E+00
   20.500   4.324E+00
   20.600   4.222E+00
   20.700   4.123E+00
   20.800   4.027E+00
   20.900   3.935E+00
   21.000   3.847E+00
   21.100   3.761E+00
   21.200   3.678E+00
   21.300   3.598E+00
   21.400   3.521E+00
   21.500   3.446E+00
   21.600   3.374E+00
   21.700   3.304E+00
   21.800   3.236E+00
   21.900   3.170E+00
   22.000   3.107E+00
   22.100   3.045E+00
   22.200   2.986E+00
   22.300   2.928E+00
   22.400   2.872E+00
   22.500   2.818E+00
   22.600   2.765E+00
   22.700   2.714E+00
   22.800   2.664E+00
   22.900   2.616E+00
   23.000   2.569E+00
   23.100   2.523E+00
   23.200   2.479E+00
   23.300   2.436E+00
   23.400   2.394E+00
   23.500   2.353E+00
   23.600   2.313E+00
   23.700   2.275E+00
   23.800   2.237E+00
   23.900   2.201E+00
   24.000   2.165E+00
   24.100   2.130E+00
   24.200   2.096E+00
   24.300   2.063E+00
   24.400   2.031E+00
   24.500   2.000E+00
   24.600   1.969E+00
   24.700   1.939E+00
   24.800   1.910E+00
   24.900   1.882E+00
   25.000   1.854E+00
   25.100   1.827E+00
   25.200   1.800E+00
   25.300   1.774E+00
   25.400   1.749E+00
   25.500   1.724E+00
   25.600   1.700E+00
   25.700   1.676E+00
   25.800   1.653E+00
   25.900   1.631E+00
   26.000   1.609E+00
   26.100   1.587E+00
   26.200   1.566E+00
   26.300   1.545E+00
   26.400   1.525E+00
   26.500   1.505E+00
   26.600   1.485E+00
   26.700   1.466E+00
   26.800   1.448E+00
   26.900   1.429E+00
   27.000   1.412E+00
   27.100   1.394E+00
   27.200   1.377E+00
   27.300   1.360E+00
   27.400   1.343E+00
   27.500   1.327E+00
   27.600   1.311E+00
   27.700   1.296E+00
   27.800   1.280E+00
   27.900   1.265E+00
   28.000   1.251E+00
   28.100   1.236E+00
   28.200   1.222E+00
   28.300   1.208E+00
   28.400   1.194E+00
   28.500   1.181E+00
   28.600   1.168E+00
   28.700   1.155E+00
   28.800   1.142E+00
   28.900   1.130E+00
   29.000   1.117E+00
   29.100   1.105E+00
   29.200   1.093E+00
   29.300   1.082E+00
   29.400   1.070E+00
   29.500   1.059E+00
   29.600   1.048E+00
   29.700   1.037E+00
   29.800   1.026E+00
   29.900   1.016E+00
   30.000   1.005E+00
 
 Z=  61 A= 148  D1M-QRPA-Inter
 E[MeV]  fQRPA[mb/MeV]
    0.100   1.595E-04
    0.200   6.382E-04
    0.300   1.436E-03
    0.400   2.554E-03
    0.500   3.992E-03
    0.600   5.751E-03
    0.700   7.831E-03
    0.800   1.023E-02
    0.900   1.296E-02
    1.000   1.600E-02
    1.100   1.938E-02
    1.200   2.307E-02
    1.300   2.709E-02
    1.400   3.144E-02
    1.500   3.612E-02
    1.600   4.112E-02
    1.700   4.645E-02
    1.800   5.212E-02
    1.900   5.812E-02
    2.000   6.446E-02
    2.100   7.113E-02
    2.200   7.816E-02
    2.300   8.553E-02
    2.400   9.327E-02
    2.500   1.014E-01
    2.600   1.098E-01
    2.700   1.187E-01
    2.800   1.279E-01
    2.900   1.376E-01
    3.000   1.477E-01
    3.100   1.582E-01
    3.200   1.691E-01
    3.300   1.806E-01
    3.400   1.925E-01
    3.500   2.049E-01
    3.600   2.178E-01
    3.700   2.312E-01
    3.800   2.453E-01
    3.900   2.599E-01
    4.000   2.751E-01
    4.100   2.909E-01
    4.200   3.074E-01
    4.300   3.246E-01
    4.400   3.425E-01
    4.500   3.611E-01
    4.600   3.806E-01
    4.700   4.008E-01
    4.800   4.219E-01
    4.900   4.438E-01
    5.000   4.666E-01
    5.100   4.904E-01
    5.200   5.152E-01
    5.300   5.410E-01
    5.400   5.679E-01
    5.500   5.959E-01
    5.600   6.250E-01
    5.700   6.554E-01
    5.800   6.871E-01
    5.900   7.200E-01
    6.000   7.544E-01
    6.100   7.901E-01
    6.200   8.274E-01
    6.300   8.663E-01
    6.400   9.068E-01
    6.500   9.491E-01
    6.600   9.932E-01
    6.700   1.039E+00
    6.800   1.087E+00
    6.900   1.137E+00
    7.000   1.189E+00
    7.100   1.244E+00
    7.200   1.300E+00
    7.300   1.360E+00
    7.400   1.422E+00
    7.500   1.486E+00
    7.600   1.554E+00
    7.700   1.624E+00
    7.800   1.697E+00
    7.900   1.774E+00
    8.000   1.854E+00
    8.100   1.938E+00
    8.200   2.025E+00
    8.300   2.116E+00
    8.400   2.212E+00
    8.500   2.311E+00
    8.600   2.415E+00
    8.700   2.524E+00
    8.800   2.638E+00
    8.900   2.757E+00
    9.000   2.881E+00
    9.100   3.012E+00
    9.200   3.148E+00
    9.300   3.290E+00
    9.400   3.439E+00
    9.500   3.595E+00
    9.600   3.758E+00
    9.700   3.929E+00
    9.800   4.108E+00
    9.900   4.295E+00
   10.000   4.490E+00
   10.100   4.695E+00
   10.200   4.909E+00
   10.300   5.133E+00
   10.400   5.367E+00
   10.500   5.611E+00
   10.600   5.867E+00
   10.700   6.134E+00
   10.800   6.412E+00
   10.900   6.703E+00
   11.000   7.006E+00
   11.100   7.321E+00
   11.200   7.650E+00
   11.300   7.991E+00
   11.400   8.345E+00
   11.500   8.713E+00
   11.600   9.093E+00
   11.700   9.485E+00
   11.800   9.890E+00
   11.900   1.031E+01
   12.000   1.073E+01
   12.100   1.117E+01
   12.200   1.161E+01
   12.300   1.206E+01
   12.400   1.251E+01
   12.500   1.297E+01
   12.600   1.342E+01
   12.700   1.388E+01
   12.800   1.432E+01
   12.900   1.476E+01
   13.000   1.519E+01
   13.100   1.560E+01
   13.200   1.599E+01
   13.300   1.636E+01
   13.400   1.671E+01
   13.500   1.703E+01
   13.600   1.732E+01
   13.700   1.757E+01
   13.800   1.780E+01
   13.900   1.798E+01
   14.000   1.814E+01
   14.100   1.825E+01
   14.200   1.832E+01
   14.300   1.836E+01
   14.400   1.835E+01
   14.500   1.831E+01
   14.600   1.823E+01
   14.700   1.812E+01
   14.800   1.796E+01
   14.900   1.778E+01
   15.000   1.756E+01
   15.100   1.731E+01
   15.200   1.704E+01
   15.300   1.674E+01
   15.400   1.641E+01
   15.500   1.607E+01
   15.600   1.571E+01
   15.700   1.534E+01
   15.800   1.495E+01
   15.900   1.456E+01
   16.000   1.416E+01
   16.100   1.375E+01
   16.200   1.335E+01
   16.300   1.295E+01
   16.400   1.255E+01
   16.500   1.216E+01
   16.600   1.177E+01
   16.700   1.139E+01
   16.800   1.102E+01
   16.900   1.066E+01
   17.000   1.031E+01
   17.100   9.965E+00
   17.200   9.635E+00
   17.300   9.317E+00
   17.400   9.010E+00
   17.500   8.714E+00
   17.600   8.429E+00
   17.700   8.155E+00
   17.800   7.892E+00
   17.900   7.640E+00
   18.000   7.397E+00
   18.100   7.165E+00
   18.200   6.941E+00
   18.300   6.727E+00
   18.400   6.522E+00
   18.500   6.325E+00
   18.600   6.137E+00
   18.700   5.956E+00
   18.800   5.782E+00
   18.900   5.616E+00
   19.000   5.456E+00
   19.100   5.303E+00
   19.200   5.156E+00
   19.300   5.015E+00
   19.400   4.879E+00
   19.500   4.749E+00
   19.600   4.624E+00
   19.700   4.504E+00
   19.800   4.388E+00
   19.900   4.277E+00
   20.000   4.169E+00
   20.100   4.066E+00
   20.200   3.967E+00
   20.300   3.871E+00
   20.400   3.779E+00
   20.500   3.690E+00
   20.600   3.605E+00
   20.700   3.522E+00
   20.800   3.442E+00
   20.900   3.365E+00
   21.000   3.291E+00
   21.100   3.219E+00
   21.200   3.150E+00
   21.300   3.082E+00
   21.400   3.017E+00
   21.500   2.955E+00
   21.600   2.894E+00
   21.700   2.835E+00
   21.800   2.778E+00
   21.900   2.723E+00
   22.000   2.669E+00
   22.100   2.617E+00
   22.200   2.567E+00
   22.300   2.518E+00
   22.400   2.471E+00
   22.500   2.425E+00
   22.600   2.380E+00
   22.700   2.337E+00
   22.800   2.295E+00
   22.900   2.254E+00
   23.000   2.214E+00
   23.100   2.175E+00
   23.200   2.138E+00
   23.300   2.101E+00
   23.400   2.066E+00
   23.500   2.031E+00
   23.600   1.997E+00
   23.700   1.964E+00
   23.800   1.932E+00
   23.900   1.901E+00
   24.000   1.871E+00
   24.100   1.841E+00
   24.200   1.812E+00
   24.300   1.784E+00
   24.400   1.757E+00
   24.500   1.730E+00
   24.600   1.704E+00
   24.700   1.678E+00
   24.800   1.653E+00
   24.900   1.629E+00
   25.000   1.605E+00
   25.100   1.582E+00
   25.200   1.559E+00
   25.300   1.537E+00
   25.400   1.516E+00
   25.500   1.494E+00
   25.600   1.474E+00
   25.700   1.454E+00
   25.800   1.434E+00
   25.900   1.414E+00
   26.000   1.395E+00
   26.100   1.377E+00
   26.200   1.359E+00
   26.300   1.341E+00
   26.400   1.324E+00
   26.500   1.306E+00
   26.600   1.290E+00
   26.700   1.273E+00
   26.800   1.257E+00
   26.900   1.242E+00
   27.000   1.226E+00
   27.100   1.211E+00
   27.200   1.196E+00
   27.300   1.182E+00
   27.400   1.168E+00
   27.500   1.154E+00
   27.600   1.140E+00
   27.700   1.127E+00
   27.800   1.113E+00
   27.900   1.101E+00
   28.000   1.088E+00
   28.100   1.075E+00
   28.200   1.063E+00
   28.300   1.051E+00
   28.400   1.039E+00
   28.500   1.028E+00
   28.600   1.016E+00
   28.700   1.005E+00
   28.800   9.943E-01
   28.900   9.835E-01
   29.000   9.729E-01
   29.100   9.625E-01
   29.200   9.523E-01
   29.300   9.422E-01
   29.400   9.323E-01
   29.500   9.226E-01
   29.600   9.130E-01
   29.700   9.036E-01
   29.800   8.943E-01
   29.900   8.852E-01
   30.000   8.763E-01
 
 Z=  61 A= 149  D1M-QRPA-Inter
 E[MeV]  fQRPA[mb/MeV]
    0.100   2.078E-04
    0.200   8.314E-04
    0.300   1.871E-03
    0.400   3.326E-03
    0.500   5.197E-03
    0.600   7.484E-03
    0.700   1.019E-02
    0.800   1.330E-02
    0.900   1.684E-02
    1.000   2.079E-02
    1.100   2.516E-02
    1.200   2.994E-02
    1.300   3.514E-02
    1.400   4.075E-02
    1.500   4.678E-02
    1.600   5.323E-02
    1.700   6.011E-02
    1.800   6.740E-02
    1.900   7.512E-02
    2.000   8.328E-02
    2.100   9.187E-02
    2.200   1.009E-01
    2.300   1.104E-01
    2.400   1.203E-01
    2.500   1.308E-01
    2.600   1.417E-01
    2.700   1.530E-01
    2.800   1.650E-01
    2.900   1.774E-01
    3.000   1.904E-01
    3.100   2.039E-01
    3.200   2.180E-01
    3.300   2.327E-01
    3.400   2.480E-01
    3.500   2.640E-01
    3.600   2.806E-01
    3.700   2.980E-01
    3.800   3.160E-01
    3.900   3.349E-01
    4.000   3.544E-01
    4.100   3.748E-01
    4.200   3.961E-01
    4.300   4.182E-01
    4.400   4.413E-01
    4.500   4.652E-01
    4.600   4.902E-01
    4.700   5.162E-01
    4.800   5.432E-01
    4.900   5.714E-01
    5.000   6.007E-01
    5.100   6.312E-01
    5.200   6.629E-01
    5.300   6.959E-01
    5.400   7.302E-01
    5.500   7.659E-01
    5.600   8.031E-01
    5.700   8.417E-01
    5.800   8.819E-01
    5.900   9.237E-01
    6.000   9.673E-01
    6.100   1.013E+00
    6.200   1.060E+00
    6.300   1.109E+00
    6.400   1.160E+00
    6.500   1.213E+00
    6.600   1.269E+00
    6.700   1.327E+00
    6.800   1.387E+00
    6.900   1.450E+00
    7.000   1.515E+00
    7.100   1.584E+00
    7.200   1.655E+00
    7.300   1.729E+00
    7.400   1.807E+00
    7.500   1.888E+00
    7.600   1.973E+00
    7.700   2.061E+00
    7.800   2.153E+00
    7.900   2.249E+00
    8.000   2.349E+00
    8.100   2.454E+00
    8.200   2.564E+00
    8.300   2.678E+00
    8.400   2.798E+00
    8.500   2.923E+00
    8.600   3.053E+00
    8.700   3.190E+00
    8.800   3.333E+00
    8.900   3.482E+00
    9.000   3.638E+00
    9.100   3.801E+00
    9.200   3.972E+00
    9.300   4.151E+00
    9.400   4.338E+00
    9.500   4.533E+00
    9.600   4.738E+00
    9.700   4.952E+00
    9.800   5.175E+00
    9.900   5.410E+00
   10.000   5.654E+00
   10.100   5.910E+00
   10.200   6.178E+00
   10.300   6.458E+00
   10.400   6.750E+00
   10.500   7.055E+00
   10.600   7.374E+00
   10.700   7.707E+00
   10.800   8.053E+00
   10.900   8.414E+00
   11.000   8.790E+00
   11.100   9.181E+00
   11.200   9.587E+00
   11.300   1.001E+01
   11.400   1.044E+01
   11.500   1.089E+01
   11.600   1.136E+01
   11.700   1.183E+01
   11.800   1.232E+01
   11.900   1.283E+01
   12.000   1.334E+01
   12.100   1.386E+01
   12.200   1.438E+01
   12.300   1.491E+01
   12.400   1.544E+01
   12.500   1.597E+01
   12.600   1.649E+01
   12.700   1.701E+01
   12.800   1.751E+01
   12.900   1.800E+01
   13.000   1.848E+01
   13.100   1.893E+01
   13.200   1.935E+01
   13.300   1.975E+01
   13.400   2.012E+01
   13.500   2.046E+01
   13.600   2.076E+01
   13.700   2.102E+01
   13.800   2.124E+01
   13.900   2.142E+01
   14.000   2.155E+01
   14.100   2.165E+01
   14.200   2.170E+01
   14.300   2.170E+01
   14.400   2.166E+01
   14.500   2.157E+01
   14.600   2.144E+01
   14.700   2.127E+01
   14.800   2.106E+01
   14.900   2.081E+01
   15.000   2.052E+01
   15.100   2.020E+01
   15.200   1.985E+01
   15.300   1.948E+01
   15.400   1.908E+01
   15.500   1.866E+01
   15.600   1.822E+01
   15.700   1.777E+01
   15.800   1.731E+01
   15.900   1.684E+01
   16.000   1.637E+01
   16.100   1.589E+01
   16.200   1.542E+01
   16.300   1.496E+01
   16.400   1.450E+01
   16.500   1.404E+01
   16.600   1.360E+01
   16.700   1.316E+01
   16.800   1.274E+01
   16.900   1.233E+01
   17.000   1.193E+01
   17.100   1.154E+01
   17.200   1.117E+01
   17.300   1.080E+01
   17.400   1.046E+01
   17.500   1.012E+01
   17.600   9.798E+00
   17.700   9.488E+00
   17.800   9.190E+00
   17.900   8.903E+00
   18.000   8.628E+00
   18.100   8.364E+00
   18.200   8.110E+00
   18.300   7.867E+00
   18.400   7.633E+00
   18.500   7.409E+00
   18.600   7.194E+00
   18.700   6.987E+00
   18.800   6.789E+00
   18.900   6.599E+00
   19.000   6.416E+00
   19.100   6.241E+00
   19.200   6.072E+00
   19.300   5.910E+00
   19.400   5.754E+00
   19.500   5.605E+00
   19.600   5.461E+00
   19.700   5.322E+00
   19.800   5.189E+00
   19.900   5.060E+00
   20.000   4.936E+00
   20.100   4.817E+00
   20.200   4.702E+00
   20.300   4.591E+00
   20.400   4.485E+00
   20.500   4.381E+00
   20.600   4.282E+00
   20.700   4.186E+00
   20.800   4.093E+00
   20.900   4.003E+00
   21.000   3.917E+00
   21.100   3.833E+00
   21.200   3.752E+00
   21.300   3.674E+00
   21.400   3.598E+00
   21.500   3.524E+00
   21.600   3.453E+00
   21.700   3.384E+00
   21.800   3.317E+00
   21.900   3.253E+00
   22.000   3.190E+00
   22.100   3.129E+00
   22.200   3.070E+00
   22.300   3.013E+00
   22.400   2.957E+00
   22.500   2.903E+00
   22.600   2.850E+00
   22.700   2.799E+00
   22.800   2.750E+00
   22.900   2.701E+00
   23.000   2.655E+00
   23.100   2.609E+00
   23.200   2.565E+00
   23.300   2.521E+00
   23.400   2.479E+00
   23.500   2.438E+00
   23.600   2.399E+00
   23.700   2.360E+00
   23.800   2.322E+00
   23.900   2.285E+00
   24.000   2.249E+00
   24.100   2.214E+00
   24.200   2.180E+00
   24.300   2.146E+00
   24.400   2.114E+00
   24.500   2.082E+00
   24.600   2.051E+00
   24.700   2.021E+00
   24.800   1.991E+00
   24.900   1.962E+00
   25.000   1.934E+00
   25.100   1.906E+00
   25.200   1.879E+00
   25.300   1.853E+00
   25.400   1.827E+00
   25.500   1.802E+00
   25.600   1.777E+00
   25.700   1.753E+00
   25.800   1.730E+00
   25.900   1.707E+00
   26.000   1.684E+00
   26.100   1.662E+00
   26.200   1.640E+00
   26.300   1.619E+00
   26.400   1.598E+00
   26.500   1.578E+00
   26.600   1.558E+00
   26.700   1.538E+00
   26.800   1.519E+00
   26.900   1.500E+00
   27.000   1.482E+00
   27.100   1.464E+00
   27.200   1.446E+00
   27.300   1.429E+00
   27.400   1.412E+00
   27.500   1.395E+00
   27.600   1.379E+00
   27.700   1.363E+00
   27.800   1.347E+00
   27.900   1.332E+00
   28.000   1.316E+00
   28.100   1.301E+00
   28.200   1.287E+00
   28.300   1.272E+00
   28.400   1.258E+00
   28.500   1.244E+00
   28.600   1.231E+00
   28.700   1.217E+00
   28.800   1.204E+00
   28.900   1.191E+00
   29.000   1.179E+00
   29.100   1.166E+00
   29.200   1.154E+00
   29.300   1.142E+00
   29.400   1.130E+00
   29.500   1.118E+00
   29.600   1.107E+00
   29.700   1.095E+00
   29.800   1.084E+00
   29.900   1.073E+00
   30.000   1.062E+00
 
 Z=  61 A= 150  D1M-QRPA-Inter
 E[MeV]  fQRPA[mb/MeV]
    0.100   2.034E-03
    0.200   4.663E-03
    0.300   7.531E-03
    0.400   1.062E-02
    0.500   1.394E-02
    0.600   1.747E-02
    0.700   2.121E-02
    0.800   2.515E-02
    0.900   2.930E-02
    1.000   3.364E-02
    1.100   3.817E-02
    1.200   4.289E-02
    1.300   4.780E-02
    1.400   5.290E-02
    1.500   5.820E-02
    1.600   6.372E-02
    1.700   6.945E-02
    1.800   7.542E-02
    1.900   8.164E-02
    2.000   8.813E-02
    2.100   9.490E-02
    2.200   1.020E-01
    2.300   1.094E-01
    2.400   1.171E-01
    2.500   1.252E-01
    2.600   1.336E-01
    2.700   1.424E-01
    2.800   1.517E-01
    2.900   1.614E-01
    3.000   1.715E-01
    3.100   1.821E-01
    3.200   1.933E-01
    3.300   2.051E-01
    3.400   2.175E-01
    3.500   2.305E-01
    3.600   2.442E-01
    3.700   2.587E-01
    3.800   2.740E-01
    3.900   2.901E-01
    4.000   3.070E-01
    4.100   3.249E-01
    4.200   3.436E-01
    4.300   3.632E-01
    4.400   3.838E-01
    4.500   4.053E-01
    4.600   4.277E-01
    4.700   4.511E-01
    4.800   4.753E-01
    4.900   5.004E-01
    5.000   5.264E-01
    5.100   5.533E-01
    5.200   5.812E-01
    5.300   6.100E-01
    5.400   6.398E-01
    5.500   6.707E-01
    5.600   7.027E-01
    5.700   7.359E-01
    5.800   7.703E-01
    5.900   8.062E-01
    6.000   8.435E-01
    6.100   8.824E-01
    6.200   9.230E-01
    6.300   9.654E-01
    6.400   1.010E+00
    6.500   1.056E+00
    6.600   1.104E+00
    6.700   1.154E+00
    6.800   1.207E+00
    6.900   1.261E+00
    7.000   1.318E+00
    7.100   1.378E+00
    7.200   1.440E+00
    7.300   1.505E+00
    7.400   1.572E+00
    7.500   1.643E+00
    7.600   1.717E+00
    7.700   1.794E+00
    7.800   1.875E+00
    7.900   1.960E+00
    8.000   2.049E+00
    8.100   2.143E+00
    8.200   2.242E+00
    8.300   2.346E+00
    8.400   2.456E+00
    8.500   2.571E+00
    8.600   2.693E+00
    8.700   2.822E+00
    8.800   2.957E+00
    8.900   3.101E+00
    9.000   3.252E+00
    9.100   3.413E+00
    9.200   3.583E+00
    9.300   3.763E+00
    9.400   3.954E+00
    9.500   4.156E+00
    9.600   4.371E+00
    9.700   4.600E+00
    9.800   4.842E+00
    9.900   5.100E+00
   10.000   5.374E+00
   10.100   5.664E+00
   10.200   5.973E+00
   10.300   6.300E+00
   10.400   6.645E+00
   10.500   7.009E+00
   10.600   7.392E+00
   10.700   7.793E+00
   10.800   8.210E+00
   10.900   8.642E+00
   11.000   9.087E+00
   11.100   9.540E+00
   11.200   9.998E+00
   11.300   1.046E+01
   11.400   1.091E+01
   11.500   1.135E+01
   11.600   1.177E+01
   11.700   1.217E+01
   11.800   1.254E+01
   11.900   1.288E+01
   12.000   1.319E+01
   12.100   1.346E+01
   12.200   1.371E+01
   12.300   1.393E+01
   12.400   1.412E+01
   12.500   1.430E+01
   12.600   1.446E+01
   12.700   1.462E+01
   12.800   1.476E+01
   12.900   1.491E+01
   13.000   1.505E+01
   13.100   1.519E+01
   13.200   1.533E+01
   13.300   1.547E+01
   13.400   1.561E+01
   13.500   1.574E+01
   13.600   1.587E+01
   13.700   1.599E+01
   13.800   1.609E+01
   13.900   1.618E+01
   14.000   1.626E+01
   14.100   1.632E+01
   14.200   1.635E+01
   14.300   1.637E+01
   14.400   1.636E+01
   14.500   1.632E+01
   14.600   1.627E+01
   14.700   1.619E+01
   14.800   1.610E+01
   14.900   1.598E+01
   15.000   1.585E+01
   15.100   1.572E+01
   15.200   1.557E+01
   15.300   1.541E+01
   15.400   1.525E+01
   15.500   1.508E+01
   15.600   1.491E+01
   15.700   1.473E+01
   15.800   1.454E+01
   15.900   1.435E+01
   16.000   1.415E+01
   16.100   1.393E+01
   16.200   1.369E+01
   16.300   1.344E+01
   16.400   1.317E+01
   16.500   1.289E+01
   16.600   1.258E+01
   16.700   1.226E+01
   16.800   1.192E+01
   16.900   1.158E+01
   17.000   1.123E+01
   17.100   1.087E+01
   17.200   1.052E+01
   17.300   1.016E+01
   17.400   9.811E+00
   17.500   9.468E+00
   17.600   9.133E+00
   17.700   8.808E+00
   17.800   8.493E+00
   17.900   8.189E+00
   18.000   7.898E+00
   18.100   7.619E+00
   18.200   7.352E+00
   18.300   7.099E+00
   18.400   6.858E+00
   18.500   6.629E+00
   18.600   6.413E+00
   18.700   6.208E+00
   18.800   6.014E+00
   18.900   5.831E+00
   19.000   5.657E+00
   19.100   5.493E+00
   19.200   5.336E+00
   19.300   5.188E+00
   19.400   5.046E+00
   19.500   4.912E+00
   19.600   4.783E+00
   19.700   4.660E+00
   19.800   4.542E+00
   19.900   4.428E+00
   20.000   4.318E+00
   20.100   4.213E+00
   20.200   4.110E+00
   20.300   4.011E+00
   20.400   3.914E+00
   20.500   3.820E+00
   20.600   3.728E+00
   20.700   3.639E+00
   20.800   3.552E+00
   20.900   3.468E+00
   21.000   3.386E+00
   21.100   3.307E+00
   21.200   3.230E+00
   21.300   3.155E+00
   21.400   3.084E+00
   21.500   3.014E+00
   21.600   2.947E+00
   21.700   2.882E+00
   21.800   2.820E+00
   21.900   2.759E+00
   22.000   2.700E+00
   22.100   2.644E+00
   22.200   2.588E+00
   22.300   2.535E+00
   22.400   2.482E+00
   22.500   2.431E+00
   22.600   2.382E+00
   22.700   2.333E+00
   22.800   2.286E+00
   22.900   2.240E+00
   23.000   2.194E+00
   23.100   2.150E+00
   23.200   2.107E+00
   23.300   2.064E+00
   23.400   2.022E+00
   23.500   1.981E+00
   23.600   1.941E+00
   23.700   1.902E+00
   23.800   1.864E+00
   23.900   1.826E+00
   24.000   1.789E+00
   24.100   1.754E+00
   24.200   1.718E+00
   24.300   1.684E+00
   24.400   1.651E+00
   24.500   1.618E+00
   24.600   1.587E+00
   24.700   1.556E+00
   24.800   1.526E+00
   24.900   1.497E+00
   25.000   1.469E+00
   25.100   1.441E+00
   25.200   1.414E+00
   25.300   1.389E+00
   25.400   1.363E+00
   25.500   1.339E+00
   25.600   1.315E+00
   25.700   1.292E+00
   25.800   1.269E+00
   25.900   1.248E+00
   26.000   1.226E+00
   26.100   1.205E+00
   26.200   1.185E+00
   26.300   1.166E+00
   26.400   1.146E+00
   26.500   1.128E+00
   26.600   1.110E+00
   26.700   1.092E+00
   26.800   1.075E+00
   26.900   1.058E+00
   27.000   1.042E+00
   27.100   1.026E+00
   27.200   1.011E+00
   27.300   9.962E-01
   27.400   9.817E-01
   27.500   9.677E-01
   27.600   9.540E-01
   27.700   9.407E-01
   27.800   9.277E-01
   27.900   9.151E-01
   28.000   9.028E-01
   28.100   8.908E-01
   28.200   8.791E-01
   28.300   8.677E-01
   28.400   8.565E-01
   28.500   8.457E-01
   28.600   8.350E-01
   28.700   8.246E-01
   28.800   8.145E-01
   28.900   8.046E-01
   29.000   7.948E-01
   29.100   7.853E-01
   29.200   7.760E-01
   29.300   7.669E-01
   29.400   7.580E-01
   29.500   7.493E-01
   29.600   7.407E-01
   29.700   7.323E-01
   29.800   7.241E-01
   29.900   7.160E-01
   30.000   7.081E-01
 
 Z=  61 A= 151  D1M-QRPA-Inter
 E[MeV]  fQRPA[mb/MeV]
    0.100   2.723E-02
    0.200   3.578E-02
    0.300   4.148E-02
    0.400   4.644E-02
    0.500   5.115E-02
    0.600   5.578E-02
    0.700   6.041E-02
    0.800   6.507E-02
    0.900   6.976E-02
    1.000   7.448E-02
    1.100   7.925E-02
    1.200   8.408E-02
    1.300   8.897E-02
    1.400   9.396E-02
    1.500   9.908E-02
    1.600   1.043E-01
    1.700   1.098E-01
    1.800   1.155E-01
    1.900   1.214E-01
    2.000   1.276E-01
    2.100   1.341E-01
    2.200   1.410E-01
    2.300   1.482E-01
    2.400   1.559E-01
    2.500   1.639E-01
    2.600   1.724E-01
    2.700   1.814E-01
    2.800   1.908E-01
    2.900   2.008E-01
    3.000   2.114E-01
    3.100   2.226E-01
    3.200   2.346E-01
    3.300   2.473E-01
    3.400   2.609E-01
    3.500   2.753E-01
    3.600   2.908E-01
    3.700   3.073E-01
    3.800   3.250E-01
    3.900   3.438E-01
    4.000   3.639E-01
    4.100   3.852E-01
    4.200   4.078E-01
    4.300   4.316E-01
    4.400   4.568E-01
    4.500   4.831E-01
    4.600   5.106E-01
    4.700   5.393E-01
    4.800   5.689E-01
    4.900   5.996E-01
    5.000   6.311E-01
    5.100   6.637E-01
    5.200   6.971E-01
    5.300   7.315E-01
    5.400   7.669E-01
    5.500   8.034E-01
    5.600   8.411E-01
    5.700   8.802E-01
    5.800   9.206E-01
    5.900   9.627E-01
    6.000   1.006E+00
    6.100   1.052E+00
    6.200   1.100E+00
    6.300   1.150E+00
    6.400   1.202E+00
    6.500   1.257E+00
    6.600   1.314E+00
    6.700   1.374E+00
    6.800   1.436E+00
    6.900   1.502E+00
    7.000   1.569E+00
    7.100   1.640E+00
    7.200   1.714E+00
    7.300   1.791E+00
    7.400   1.871E+00
    7.500   1.955E+00
    7.600   2.044E+00
    7.700   2.136E+00
    7.800   2.234E+00
    7.900   2.337E+00
    8.000   2.446E+00
    8.100   2.561E+00
    8.200   2.682E+00
    8.300   2.812E+00
    8.400   2.949E+00
    8.500   3.095E+00
    8.600   3.250E+00
    8.700   3.415E+00
    8.800   3.591E+00
    8.900   3.778E+00
    9.000   3.978E+00
    9.100   4.192E+00
    9.200   4.421E+00
    9.300   4.667E+00
    9.400   4.930E+00
    9.500   5.213E+00
    9.600   5.518E+00
    9.700   5.845E+00
    9.800   6.198E+00
    9.900   6.578E+00
   10.000   6.987E+00
   10.100   7.427E+00
   10.200   7.900E+00
   10.300   8.407E+00
   10.400   8.950E+00
   10.500   9.527E+00
   10.600   1.014E+01
   10.700   1.078E+01
   10.800   1.145E+01
   10.900   1.214E+01
   11.000   1.285E+01
   11.100   1.356E+01
   11.200   1.427E+01
   11.300   1.494E+01
   11.400   1.559E+01
   11.500   1.617E+01
   11.600   1.668E+01
   11.700   1.711E+01
   11.800   1.745E+01
   11.900   1.769E+01
   12.000   1.784E+01
   12.100   1.790E+01
   12.200   1.788E+01
   12.300   1.780E+01
   12.400   1.768E+01
   12.500   1.752E+01
   12.600   1.736E+01
   12.700   1.719E+01
   12.800   1.703E+01
   12.900   1.689E+01
   13.000   1.677E+01
   13.100   1.668E+01
   13.200   1.662E+01
   13.300   1.658E+01
   13.400   1.656E+01
   13.500   1.657E+01
   13.600   1.660E+01
   13.700   1.663E+01
   13.800   1.668E+01
   13.900   1.673E+01
   14.000   1.678E+01
   14.100   1.683E+01
   14.200   1.686E+01
   14.300   1.689E+01
   14.400   1.690E+01
   14.500   1.690E+01
   14.600   1.689E+01
   14.700   1.686E+01
   14.800   1.683E+01
   14.900   1.679E+01
   15.000   1.676E+01
   15.100   1.672E+01
   15.200   1.670E+01
   15.300   1.668E+01
   15.400   1.667E+01
   15.500   1.667E+01
   15.600   1.669E+01
   15.700   1.671E+01
   15.800   1.672E+01
   15.900   1.673E+01
   16.000   1.673E+01
   16.100   1.670E+01
   16.200   1.664E+01
   16.300   1.653E+01
   16.400   1.638E+01
   16.500   1.618E+01
   16.600   1.592E+01
   16.700   1.562E+01
   16.800   1.527E+01
   16.900   1.488E+01
   17.000   1.446E+01
   17.100   1.401E+01
   17.200   1.355E+01
   17.300   1.307E+01
   17.400   1.260E+01
   17.500   1.212E+01
   17.600   1.165E+01
   17.700   1.119E+01
   17.800   1.074E+01
   17.900   1.031E+01
   18.000   9.891E+00
   18.100   9.495E+00
   18.200   9.119E+00
   18.300   8.764E+00
   18.400   8.429E+00
   18.500   8.115E+00
   18.600   7.821E+00
   18.700   7.547E+00
   18.800   7.290E+00
   18.900   7.049E+00
   19.000   6.824E+00
   19.100   6.614E+00
   19.200   6.416E+00
   19.300   6.230E+00
   19.400   6.055E+00
   19.500   5.889E+00
   19.600   5.732E+00
   19.700   5.582E+00
   19.800   5.439E+00
   19.900   5.301E+00
   20.000   5.169E+00
   20.100   5.040E+00
   20.200   4.915E+00
   20.300   4.793E+00
   20.400   4.673E+00
   20.500   4.556E+00
   20.600   4.441E+00
   20.700   4.328E+00
   20.800   4.217E+00
   20.900   4.110E+00
   21.000   4.005E+00
   21.100   3.903E+00
   21.200   3.804E+00
   21.300   3.708E+00
   21.400   3.616E+00
   21.500   3.527E+00
   21.600   3.441E+00
   21.700   3.359E+00
   21.800   3.279E+00
   21.900   3.202E+00
   22.000   3.128E+00
   22.100   3.056E+00
   22.200   2.986E+00
   22.300   2.917E+00
   22.400   2.851E+00
   22.500   2.786E+00
   22.600   2.723E+00
   22.700   2.661E+00
   22.800   2.600E+00
   22.900   2.540E+00
   23.000   2.482E+00
   23.100   2.424E+00
   23.200   2.367E+00
   23.300   2.312E+00
   23.400   2.257E+00
   23.500   2.203E+00
   23.600   2.150E+00
   23.700   2.098E+00
   23.800   2.047E+00
   23.900   1.997E+00
   24.000   1.948E+00
   24.100   1.900E+00
   24.200   1.854E+00
   24.300   1.808E+00
   24.400   1.764E+00
   24.500   1.721E+00
   24.600   1.680E+00
   24.700   1.639E+00
   24.800   1.600E+00
   24.900   1.562E+00
   25.000   1.526E+00
   25.100   1.491E+00
   25.200   1.457E+00
   25.300   1.424E+00
   25.400   1.392E+00
   25.500   1.361E+00
   25.600   1.331E+00
   25.700   1.303E+00
   25.800   1.275E+00
   25.900   1.248E+00
   26.000   1.222E+00
   26.100   1.196E+00
   26.200   1.172E+00
   26.300   1.148E+00
   26.400   1.125E+00
   26.500   1.103E+00
   26.600   1.081E+00
   26.700   1.061E+00
   26.800   1.041E+00
   26.900   1.021E+00
   27.000   1.002E+00
   27.100   9.844E-01
   27.200   9.669E-01
   27.300   9.501E-01
   27.400   9.338E-01
   27.500   9.182E-01
   27.600   9.030E-01
   27.700   8.883E-01
   27.800   8.741E-01
   27.900   8.604E-01
   28.000   8.471E-01
   28.100   8.342E-01
   28.200   8.217E-01
   28.300   8.095E-01
   28.400   7.977E-01
   28.500   7.862E-01
   28.600   7.751E-01
   28.700   7.643E-01
   28.800   7.537E-01
   28.900   7.434E-01
   29.000   7.334E-01
   29.100   7.237E-01
   29.200   7.142E-01
   29.300   7.049E-01
   29.400   6.958E-01
   29.500   6.870E-01
   29.600   6.784E-01
   29.700   6.699E-01
   29.800   6.617E-01
   29.900   6.536E-01
   30.000   6.457E-01
 
 Z=  61 A= 152  D1M-QRPA-Inter
 E[MeV]  fQRPA[mb/MeV]
    0.100   2.543E-02
    0.200   3.406E-02
    0.300   3.986E-02
    0.400   4.495E-02
    0.500   4.970E-02
    0.600   5.420E-02
    0.700   5.850E-02
    0.800   6.267E-02
    0.900   6.674E-02
    1.000   7.079E-02
    1.100   7.485E-02
    1.200   7.898E-02
    1.300   8.322E-02
    1.400   8.759E-02
    1.500   9.213E-02
    1.600   9.683E-02
    1.700   1.017E-01
    1.800   1.068E-01
    1.900   1.120E-01
    2.000   1.175E-01
    2.100   1.233E-01
    2.200   1.295E-01
    2.300   1.361E-01
    2.400   1.432E-01
    2.500   1.509E-01
    2.600   1.592E-01
    2.700   1.683E-01
    2.800   1.781E-01
    2.900   1.888E-01
    3.000   2.003E-01
    3.100   2.127E-01
    3.200   2.260E-01
    3.300   2.403E-01
    3.400   2.554E-01
    3.500   2.713E-01
    3.600   2.880E-01
    3.700   3.053E-01
    3.800   3.234E-01
    3.900   3.422E-01
    4.000   3.618E-01
    4.100   3.823E-01
    4.200   4.037E-01
    4.300   4.260E-01
    4.400   4.492E-01
    4.500   4.733E-01
    4.600   4.983E-01
    4.700   5.242E-01
    4.800   5.510E-01
    4.900   5.788E-01
    5.000   6.076E-01
    5.100   6.377E-01
    5.200   6.691E-01
    5.300   7.018E-01
    5.400   7.360E-01
    5.500   7.718E-01
    5.600   8.094E-01
    5.700   8.490E-01
    5.800   8.907E-01
    5.900   9.346E-01
    6.000   9.808E-01
    6.100   1.029E+00
    6.200   1.079E+00
    6.300   1.131E+00
    6.400   1.185E+00
    6.500   1.240E+00
    6.600   1.296E+00
    6.700   1.354E+00
    6.800   1.414E+00
    6.900   1.476E+00
    7.000   1.540E+00
    7.100   1.608E+00
    7.200   1.679E+00
    7.300   1.755E+00
    7.400   1.836E+00
    7.500   1.922E+00
    7.600   2.014E+00
    7.700   2.112E+00
    7.800   2.216E+00
    7.900   2.328E+00
    8.000   2.448E+00
    8.100   2.577E+00
    8.200   2.715E+00
    8.300   2.863E+00
    8.400   3.022E+00
    8.500   3.194E+00
    8.600   3.380E+00
    8.700   3.581E+00
    8.800   3.800E+00
    8.900   4.039E+00
    9.000   4.299E+00
    9.100   4.584E+00
    9.200   4.896E+00
    9.300   5.238E+00
    9.400   5.612E+00
    9.500   6.023E+00
    9.600   6.472E+00
    9.700   6.964E+00
    9.800   7.501E+00
    9.900   8.086E+00
   10.000   8.722E+00
   10.100   9.408E+00
   10.200   1.014E+01
   10.300   1.092E+01
   10.400   1.173E+01
   10.500   1.255E+01
   10.600   1.335E+01
   10.700   1.411E+01
   10.800   1.479E+01
   10.900   1.536E+01
   11.000   1.581E+01
   11.100   1.613E+01
   11.200   1.633E+01
   11.300   1.642E+01
   11.400   1.643E+01
   11.500   1.637E+01
   11.600   1.627E+01
   11.700   1.614E+01
   11.800   1.600E+01
   11.900   1.585E+01
   12.000   1.572E+01
   12.100   1.560E+01
   12.200   1.550E+01
   12.300   1.542E+01
   12.400   1.536E+01
   12.500   1.532E+01
   12.600   1.531E+01
   12.700   1.531E+01
   12.800   1.533E+01
   12.900   1.537E+01
   13.000   1.541E+01
   13.100   1.547E+01
   13.200   1.553E+01
   13.300   1.559E+01
   13.400   1.565E+01
   13.500   1.570E+01
   13.600   1.576E+01
   13.700   1.580E+01
   13.800   1.584E+01
   13.900   1.588E+01
   14.000   1.590E+01
   14.100   1.592E+01
   14.200   1.595E+01
   14.300   1.598E+01
   14.400   1.602E+01
   14.500   1.608E+01
   14.600   1.615E+01
   14.700   1.624E+01
   14.800   1.634E+01
   14.900   1.644E+01
   15.000   1.653E+01
   15.100   1.660E+01
   15.200   1.664E+01
   15.300   1.663E+01
   15.400   1.656E+01
   15.500   1.642E+01
   15.600   1.621E+01
   15.700   1.593E+01
   15.800   1.560E+01
   15.900   1.522E+01
   16.000   1.481E+01
   16.100   1.437E+01
   16.200   1.393E+01
   16.300   1.348E+01
   16.400   1.303E+01
   16.500   1.258E+01
   16.600   1.214E+01
   16.700   1.171E+01
   16.800   1.129E+01
   16.900   1.088E+01
   17.000   1.048E+01
   17.100   1.010E+01
   17.200   9.727E+00
   17.300   9.373E+00
   17.400   9.033E+00
   17.500   8.708E+00
   17.600   8.396E+00
   17.700   8.098E+00
   17.800   7.813E+00
   17.900   7.541E+00
   18.000   7.280E+00
   18.100   7.029E+00
   18.200   6.789E+00
   18.300   6.558E+00
   18.400   6.336E+00
   18.500   6.124E+00
   18.600   5.921E+00
   18.700   5.727E+00
   18.800   5.541E+00
   18.900   5.365E+00
   19.000   5.196E+00
   19.100   5.036E+00
   19.200   4.884E+00
   19.300   4.739E+00
   19.400   4.600E+00
   19.500   4.466E+00
   19.600   4.338E+00
   19.700   4.213E+00
   19.800   4.092E+00
   19.900   3.974E+00
   20.000   3.858E+00
   20.100   3.744E+00
   20.200   3.631E+00
   20.300   3.521E+00
   20.400   3.412E+00
   20.500   3.304E+00
   20.600   3.199E+00
   20.700   3.097E+00
   20.800   2.996E+00
   20.900   2.898E+00
   21.000   2.803E+00
   21.100   2.712E+00
   21.200   2.624E+00
   21.300   2.540E+00
   21.400   2.460E+00
   21.500   2.384E+00
   21.600   2.311E+00
   21.700   2.241E+00
   21.800   2.174E+00
   21.900   2.110E+00
   22.000   2.048E+00
   22.100   1.989E+00
   22.200   1.931E+00
   22.300   1.875E+00
   22.400   1.822E+00
   22.500   1.770E+00
   22.600   1.720E+00
   22.700   1.672E+00
   22.800   1.626E+00
   22.900   1.582E+00
   23.000   1.540E+00
   23.100   1.500E+00
   23.200   1.461E+00
   23.300   1.424E+00
   23.400   1.388E+00
   23.500   1.353E+00
   23.600   1.320E+00
   23.700   1.288E+00
   23.800   1.257E+00
   23.900   1.227E+00
   24.000   1.198E+00
   24.100   1.171E+00
   24.200   1.144E+00
   24.300   1.118E+00
   24.400   1.093E+00
   24.500   1.068E+00
   24.600   1.045E+00
   24.700   1.022E+00
   24.800   1.001E+00
   24.900   9.795E-01
   25.000   9.592E-01
   25.100   9.395E-01
   25.200   9.205E-01
   25.300   9.021E-01
   25.400   8.843E-01
   25.500   8.671E-01
   25.600   8.505E-01
   25.700   8.343E-01
   25.800   8.187E-01
   25.900   8.035E-01
   26.000   7.888E-01
   26.100   7.746E-01
   26.200   7.607E-01
   26.300   7.473E-01
   26.400   7.342E-01
   26.500   7.215E-01
   26.600   7.092E-01
   26.700   6.973E-01
   26.800   6.858E-01
   26.900   6.745E-01
   27.000   6.637E-01
   27.100   6.531E-01
   27.200   6.429E-01
   27.300   6.329E-01
   27.400   6.233E-01
   27.500   6.139E-01
   27.600   6.049E-01
   27.700   5.960E-01
   27.800   5.874E-01
   27.900   5.791E-01
   28.000   5.710E-01
   28.100   5.630E-01
   28.200   5.553E-01
   28.300   5.478E-01
   28.400   5.405E-01
   28.500   5.334E-01
   28.600   5.264E-01
   28.700   5.196E-01
   28.800   5.130E-01
   28.900   5.065E-01
   29.000   5.002E-01
   29.100   4.940E-01
   29.200   4.879E-01
   29.300   4.820E-01
   29.400   4.762E-01
   29.500   4.705E-01
   29.600   4.650E-01
   29.700   4.596E-01
   29.800   4.542E-01
   29.900   4.490E-01
   30.000   4.439E-01
 
 Z=  61 A= 153  D1M-QRPA-Inter
 E[MeV]  fQRPA[mb/MeV]
    0.100   2.275E-02
    0.200   3.105E-02
    0.300   3.667E-02
    0.400   4.166E-02
    0.500   4.624E-02
    0.600   5.043E-02
    0.700   5.426E-02
    0.800   5.780E-02
    0.900   6.116E-02
    1.000   6.442E-02
    1.100   6.769E-02
    1.200   7.105E-02
    1.300   7.453E-02
    1.400   7.819E-02
    1.500   8.204E-02
    1.600   8.605E-02
    1.700   9.023E-02
    1.800   9.455E-02
    1.900   9.903E-02
    2.000   1.037E-01
    2.100   1.086E-01
    2.200   1.139E-01
    2.300   1.196E-01
    2.400   1.259E-01
    2.500   1.330E-01
    2.600   1.408E-01
    2.700   1.495E-01
    2.800   1.592E-01
    2.900   1.699E-01
    3.000   1.817E-01
    3.100   1.946E-01
    3.200   2.086E-01
    3.300   2.235E-01
    3.400   2.394E-01
    3.500   2.560E-01
    3.600   2.730E-01
    3.700   2.905E-01
    3.800   3.082E-01
    3.900   3.262E-01
    4.000   3.446E-01
    4.100   3.634E-01
    4.200   3.827E-01
    4.300   4.026E-01
    4.400   4.230E-01
    4.500   4.441E-01
    4.600   4.657E-01
    4.700   4.879E-01
    4.800   5.110E-01
    4.900   5.350E-01
    5.000   5.603E-01
    5.100   5.868E-01
    5.200   6.150E-01
    5.300   6.447E-01
    5.400   6.763E-01
    5.500   7.100E-01
    5.600   7.458E-01
    5.700   7.842E-01
    5.800   8.252E-01
    5.900   8.690E-01
    6.000   9.153E-01
    6.100   9.638E-01
    6.200   1.014E+00
    6.300   1.066E+00
    6.400   1.118E+00
    6.500   1.171E+00
    6.600   1.224E+00
    6.700   1.278E+00
    6.800   1.333E+00
    6.900   1.389E+00
    7.000   1.448E+00
    7.100   1.510E+00
    7.200   1.576E+00
    7.300   1.648E+00
    7.400   1.725E+00
    7.500   1.809E+00
    7.600   1.900E+00
    7.700   1.999E+00
    7.800   2.106E+00
    7.900   2.221E+00
    8.000   2.347E+00
    8.100   2.483E+00
    8.200   2.631E+00
    8.300   2.791E+00
    8.400   2.967E+00
    8.500   3.158E+00
    8.600   3.367E+00
    8.700   3.597E+00
    8.800   3.852E+00
    8.900   4.134E+00
    9.000   4.449E+00
    9.100   4.800E+00
    9.200   5.192E+00
    9.300   5.630E+00
    9.400   6.118E+00
    9.500   6.663E+00
    9.600   7.270E+00
    9.700   7.944E+00
    9.800   8.692E+00
    9.900   9.518E+00
   10.000   1.043E+01
   10.100   1.141E+01
   10.200   1.247E+01
   10.300   1.358E+01
   10.400   1.472E+01
   10.500   1.582E+01
   10.600   1.683E+01
   10.700   1.768E+01
   10.800   1.828E+01
   10.900   1.861E+01
   11.000   1.863E+01
   11.100   1.838E+01
   11.200   1.791E+01
   11.300   1.728E+01
   11.400   1.658E+01
   11.500   1.587E+01
   11.600   1.519E+01
   11.700   1.457E+01
   11.800   1.404E+01
   11.900   1.360E+01
   12.000   1.327E+01
   12.100   1.302E+01
   12.200   1.287E+01
   12.300   1.279E+01
   12.400   1.279E+01
   12.500   1.283E+01
   12.600   1.293E+01
   12.700   1.306E+01
   12.800   1.321E+01
   12.900   1.338E+01
   13.000   1.356E+01
   13.100   1.374E+01
   13.200   1.390E+01
   13.300   1.404E+01
   13.400   1.415E+01
   13.500   1.425E+01
   13.600   1.432E+01
   13.700   1.438E+01
   13.800   1.441E+01
   13.900   1.442E+01
   14.000   1.443E+01
   14.100   1.443E+01
   14.200   1.444E+01
   14.300   1.448E+01
   14.400   1.454E+01
   14.500   1.465E+01
   14.600   1.480E+01
   14.700   1.498E+01
   14.800   1.519E+01
   14.900   1.541E+01
   15.000   1.562E+01
   15.100   1.579E+01
   15.200   1.589E+01
   15.300   1.588E+01
   15.400   1.575E+01
   15.500   1.548E+01
   15.600   1.508E+01
   15.700   1.455E+01
   15.800   1.393E+01
   15.900   1.326E+01
   16.000   1.255E+01
   16.100   1.185E+01
   16.200   1.117E+01
   16.300   1.052E+01
   16.400   9.923E+00
   16.500   9.370E+00
   16.600   8.865E+00
   16.700   8.406E+00
   16.800   7.991E+00
   16.900   7.614E+00
   17.000   7.274E+00
   17.100   6.967E+00
   17.200   6.688E+00
   17.300   6.435E+00
   17.400   6.204E+00
   17.500   5.992E+00
   17.600   5.796E+00
   17.700   5.614E+00
   17.800   5.444E+00
   17.900   5.284E+00
   18.000   5.131E+00
   18.100   4.984E+00
   18.200   4.840E+00
   18.300   4.699E+00
   18.400   4.561E+00
   18.500   4.425E+00
   18.600   4.292E+00
   18.700   4.161E+00
   18.800   4.034E+00
   18.900   3.910E+00
   19.000   3.789E+00
   19.100   3.673E+00
   19.200   3.560E+00
   19.300   3.451E+00
   19.400   3.346E+00
   19.500   3.244E+00
   19.600   3.144E+00
   19.700   3.046E+00
   19.800   2.949E+00
   19.900   2.853E+00
   20.000   2.758E+00
   20.100   2.663E+00
   20.200   2.569E+00
   20.300   2.476E+00
   20.400   2.385E+00
   20.500   2.295E+00
   20.600   2.207E+00
   20.700   2.122E+00
   20.800   2.038E+00
   20.900   1.957E+00
   21.000   1.880E+00
   21.100   1.805E+00
   21.200   1.734E+00
   21.300   1.667E+00
   21.400   1.603E+00
   21.500   1.543E+00
   21.600   1.486E+00
   21.700   1.432E+00
   21.800   1.380E+00
   21.900   1.331E+00
   22.000   1.284E+00
   22.100   1.239E+00
   22.200   1.196E+00
   22.300   1.154E+00
   22.400   1.115E+00
   22.500   1.077E+00
   22.600   1.041E+00
   22.700   1.007E+00
   22.800   9.744E-01
   22.900   9.440E-01
   23.000   9.154E-01
   23.100   8.885E-01
   23.200   8.633E-01
   23.300   8.395E-01
   23.400   8.171E-01
   23.500   7.960E-01
   23.600   7.760E-01
   23.700   7.571E-01
   23.800   7.392E-01
   23.900   7.222E-01
   24.000   7.060E-01
   24.100   6.905E-01
   24.200   6.758E-01
   24.300   6.617E-01
   24.400   6.481E-01
   24.500   6.352E-01
   24.600   6.227E-01
   24.700   6.107E-01
   24.800   5.992E-01
   24.900   5.881E-01
   25.000   5.774E-01
   25.100   5.671E-01
   25.200   5.571E-01
   25.300   5.474E-01
   25.400   5.381E-01
   25.500   5.290E-01
   25.600   5.203E-01
   25.700   5.118E-01
   25.800   5.035E-01
   25.900   4.955E-01
   26.000   4.878E-01
   26.100   4.802E-01
   26.200   4.729E-01
   26.300   4.657E-01
   26.400   4.588E-01
   26.500   4.520E-01
   26.600   4.455E-01
   26.700   4.390E-01
   26.800   4.328E-01
   26.900   4.267E-01
   27.000   4.208E-01
   27.100   4.150E-01
   27.200   4.093E-01
   27.300   4.038E-01
   27.400   3.984E-01
   27.500   3.931E-01
   27.600   3.880E-01
   27.700   3.830E-01
   27.800   3.780E-01
   27.900   3.732E-01
   28.000   3.685E-01
   28.100   3.639E-01
   28.200   3.594E-01
   28.300   3.550E-01
   28.400   3.507E-01
   28.500   3.465E-01
   28.600   3.424E-01
   28.700   3.383E-01
   28.800   3.343E-01
   28.900   3.304E-01
   29.000   3.266E-01
   29.100   3.229E-01
   29.200   3.192E-01
   29.300   3.156E-01
   29.400   3.121E-01
   29.500   3.086E-01
   29.600   3.052E-01
   29.700   3.019E-01
   29.800   2.986E-01
   29.900   2.954E-01
   30.000   2.922E-01
 
 Z=  61 A= 154  D1M-QRPA-Inter
 E[MeV]  fQRPA[mb/MeV]
    0.100   7.316E-03
    0.200   1.659E-02
    0.300   2.581E-02
    0.400   3.460E-02
    0.500   4.262E-02
    0.600   4.972E-02
    0.700   5.589E-02
    0.800   6.124E-02
    0.900   6.595E-02
    1.000   7.021E-02
    1.100   7.419E-02
    1.200   7.807E-02
    1.300   8.196E-02
    1.400   8.594E-02
    1.500   9.008E-02
    1.600   9.438E-02
    1.700   9.887E-02
    1.800   1.035E-01
    1.900   1.084E-01
    2.000   1.135E-01
    2.100   1.188E-01
    2.200   1.245E-01
    2.300   1.306E-01
    2.400   1.371E-01
    2.500   1.443E-01
    2.600   1.521E-01
    2.700   1.606E-01
    2.800   1.698E-01
    2.900   1.799E-01
    3.000   1.909E-01
    3.100   2.029E-01
    3.200   2.158E-01
    3.300   2.297E-01
    3.400   2.446E-01
    3.500   2.605E-01
    3.600   2.773E-01
    3.700   2.949E-01
    3.800   3.135E-01
    3.900   3.330E-01
    4.000   3.535E-01
    4.100   3.750E-01
    4.200   3.976E-01
    4.300   4.214E-01
    4.400   4.461E-01
    4.500   4.719E-01
    4.600   4.985E-01
    4.700   5.259E-01
    4.800   5.541E-01
    4.900   5.831E-01
    5.000   6.127E-01
    5.100   6.432E-01
    5.200   6.747E-01
    5.300   7.071E-01
    5.400   7.408E-01
    5.500   7.761E-01
    5.600   8.132E-01
    5.700   8.524E-01
    5.800   8.941E-01
    5.900   9.385E-01
    6.000   9.855E-01
    6.100   1.035E+00
    6.200   1.087E+00
    6.300   1.142E+00
    6.400   1.199E+00
    6.500   1.258E+00
    6.600   1.319E+00
    6.700   1.383E+00
    6.800   1.449E+00
    6.900   1.518E+00
    7.000   1.590E+00
    7.100   1.665E+00
    7.200   1.745E+00
    7.300   1.830E+00
    7.400   1.919E+00
    7.500   2.013E+00
    7.600   2.112E+00
    7.700   2.217E+00
    7.800   2.329E+00
    7.900   2.448E+00
    8.000   2.575E+00
    8.100   2.712E+00
    8.200   2.859E+00
    8.300   3.018E+00
    8.400   3.191E+00
    8.500   3.378E+00
    8.600   3.583E+00
    8.700   3.807E+00
    8.800   4.054E+00
    8.900   4.326E+00
    9.000   4.627E+00
    9.100   4.960E+00
    9.200   5.329E+00
    9.300   5.739E+00
    9.400   6.194E+00
    9.500   6.699E+00
    9.600   7.259E+00
    9.700   7.881E+00
    9.800   8.570E+00
    9.900   9.333E+00
   10.000   1.017E+01
   10.100   1.109E+01
   10.200   1.209E+01
   10.300   1.317E+01
   10.400   1.430E+01
   10.500   1.546E+01
   10.600   1.661E+01
   10.700   1.772E+01
   10.800   1.872E+01
   10.900   1.957E+01
   11.000   2.022E+01
   11.100   2.065E+01
   11.200   2.085E+01
   11.300   2.083E+01
   11.400   2.063E+01
   11.500   2.029E+01
   11.600   1.983E+01
   11.700   1.933E+01
   11.800   1.880E+01
   11.900   1.831E+01
   12.000   1.786E+01
   12.100   1.748E+01
   12.200   1.719E+01
   12.300   1.698E+01
   12.400   1.685E+01
   12.500   1.681E+01
   12.600   1.683E+01
   12.700   1.692E+01
   12.800   1.707E+01
   12.900   1.725E+01
   13.000   1.747E+01
   13.100   1.769E+01
   13.200   1.792E+01
   13.300   1.814E+01
   13.400   1.834E+01
   13.500   1.851E+01
   13.600   1.865E+01
   13.700   1.877E+01
   13.800   1.885E+01
   13.900   1.890E+01
   14.000   1.893E+01
   14.100   1.894E+01
   14.200   1.896E+01
   14.300   1.899E+01
   14.400   1.904E+01
   14.500   1.912E+01
   14.600   1.921E+01
   14.700   1.931E+01
   14.800   1.940E+01
   14.900   1.945E+01
   15.000   1.945E+01
   15.100   1.937E+01
   15.200   1.919E+01
   15.300   1.890E+01
   15.400   1.850E+01
   15.500   1.800E+01
   15.600   1.740E+01
   15.700   1.674E+01
   15.800   1.604E+01
   15.900   1.533E+01
   16.000   1.461E+01
   16.100   1.391E+01
   16.200   1.325E+01
   16.300   1.262E+01
   16.400   1.202E+01
   16.500   1.147E+01
   16.600   1.095E+01
   16.700   1.046E+01
   16.800   9.995E+00
   16.900   9.554E+00
   17.000   9.132E+00
   17.100   8.724E+00
   17.200   8.330E+00
   17.300   7.947E+00
   17.400   7.578E+00
   17.500   7.222E+00
   17.600   6.882E+00
   17.700   6.559E+00
   17.800   6.253E+00
   17.900   5.965E+00
   18.000   5.695E+00
   18.100   5.440E+00
   18.200   5.202E+00
   18.300   4.977E+00
   18.400   4.766E+00
   18.500   4.567E+00
   18.600   4.379E+00
   18.700   4.203E+00
   18.800   4.037E+00
   18.900   3.880E+00
   19.000   3.733E+00
   19.100   3.593E+00
   19.200   3.462E+00
   19.300   3.338E+00
   19.400   3.221E+00
   19.500   3.109E+00
   19.600   3.003E+00
   19.700   2.901E+00
   19.800   2.804E+00
   19.900   2.709E+00
   20.000   2.619E+00
   20.100   2.531E+00
   20.200   2.445E+00
   20.300   2.363E+00
   20.400   2.283E+00
   20.500   2.206E+00
   20.600   2.132E+00
   20.700   2.060E+00
   20.800   1.990E+00
   20.900   1.923E+00
   21.000   1.859E+00
   21.100   1.798E+00
   21.200   1.739E+00
   21.300   1.683E+00
   21.400   1.630E+00
   21.500   1.579E+00
   21.600   1.531E+00
   21.700   1.485E+00
   21.800   1.441E+00
   21.900   1.399E+00
   22.000   1.359E+00
   22.100   1.320E+00
   22.200   1.282E+00
   22.300   1.246E+00
   22.400   1.212E+00
   22.500   1.178E+00
   22.600   1.147E+00
   22.700   1.116E+00
   22.800   1.087E+00
   22.900   1.060E+00
   23.000   1.033E+00
   23.100   1.008E+00
   23.200   9.843E-01
   23.300   9.615E-01
   23.400   9.398E-01
   23.500   9.192E-01
   23.600   8.994E-01
   23.700   8.805E-01
   23.800   8.623E-01
   23.900   8.450E-01
   24.000   8.283E-01
   24.100   8.122E-01
   24.200   7.967E-01
   24.300   7.818E-01
   24.400   7.675E-01
   24.500   7.536E-01
   24.600   7.402E-01
   24.700   7.272E-01
   24.800   7.147E-01
   24.900   7.025E-01
   25.000   6.908E-01
   25.100   6.793E-01
   25.200   6.683E-01
   25.300   6.575E-01
   25.400   6.471E-01
   25.500   6.369E-01
   25.600   6.271E-01
   25.700   6.175E-01
   25.800   6.081E-01
   25.900   5.990E-01
   26.000   5.902E-01
   26.100   5.816E-01
   26.200   5.731E-01
   26.300   5.650E-01
   26.400   5.570E-01
   26.500   5.492E-01
   26.600   5.416E-01
   26.700   5.341E-01
   26.800   5.269E-01
   26.900   5.198E-01
   27.000   5.129E-01
   27.100   5.061E-01
   27.200   4.995E-01
   27.300   4.930E-01
   27.400   4.867E-01
   27.500   4.805E-01
   27.600   4.745E-01
   27.700   4.685E-01
   27.800   4.627E-01
   27.900   4.571E-01
   28.000   4.515E-01
   28.100   4.461E-01
   28.200   4.407E-01
   28.300   4.355E-01
   28.400   4.304E-01
   28.500   4.253E-01
   28.600   4.204E-01
   28.700   4.156E-01
   28.800   4.108E-01
   28.900   4.062E-01
   29.000   4.016E-01
   29.100   3.972E-01
   29.200   3.928E-01
   29.300   3.885E-01
   29.400   3.842E-01
   29.500   3.801E-01
   29.600   3.760E-01
   29.700   3.720E-01
   29.800   3.680E-01
   29.900   3.642E-01
   30.000   3.604E-01
 
 Z=  61 A= 155  D1M-QRPA-Inter
 E[MeV]  fQRPA[mb/MeV]
    0.100   1.668E-03
    0.200   6.284E-03
    0.300   1.289E-02
    0.400   2.037E-02
    0.500   2.785E-02
    0.600   3.475E-02
    0.700   4.082E-02
    0.800   4.601E-02
    0.900   5.043E-02
    1.000   5.425E-02
    1.100   5.766E-02
    1.200   6.083E-02
    1.300   6.391E-02
    1.400   6.698E-02
    1.500   7.014E-02
    1.600   7.341E-02
    1.700   7.683E-02
    1.800   8.041E-02
    1.900   8.416E-02
    2.000   8.808E-02
    2.100   9.220E-02
    2.200   9.652E-02
    2.300   1.011E-01
    2.400   1.059E-01
    2.500   1.110E-01
    2.600   1.164E-01
    2.700   1.223E-01
    2.800   1.285E-01
    2.900   1.351E-01
    3.000   1.423E-01
    3.100   1.500E-01
    3.200   1.583E-01
    3.300   1.674E-01
    3.400   1.772E-01
    3.500   1.880E-01
    3.600   1.996E-01
    3.700   2.123E-01
    3.800   2.261E-01
    3.900   2.410E-01
    4.000   2.571E-01
    4.100   2.745E-01
    4.200   2.930E-01
    4.300   3.127E-01
    4.400   3.336E-01
    4.500   3.556E-01
    4.600   3.784E-01
    4.700   4.020E-01
    4.800   4.261E-01
    4.900   4.506E-01
    5.000   4.752E-01
    5.100   5.000E-01
    5.200   5.249E-01
    5.300   5.500E-01
    5.400   5.755E-01
    5.500   6.016E-01
    5.600   6.287E-01
    5.700   6.570E-01
    5.800   6.870E-01
    5.900   7.187E-01
    6.000   7.525E-01
    6.100   7.885E-01
    6.200   8.269E-01
    6.300   8.678E-01
    6.400   9.115E-01
    6.500   9.580E-01
    6.600   1.008E+00
    6.700   1.060E+00
    6.800   1.116E+00
    6.900   1.176E+00
    7.000   1.238E+00
    7.100   1.303E+00
    7.200   1.371E+00
    7.300   1.441E+00
    7.400   1.513E+00
    7.500   1.588E+00
    7.600   1.665E+00
    7.700   1.744E+00
    7.800   1.827E+00
    7.900   1.913E+00
    8.000   2.004E+00
    8.100   2.100E+00
    8.200   2.203E+00
    8.300   2.314E+00
    8.400   2.433E+00
    8.500   2.563E+00
    8.600   2.704E+00
    8.700   2.858E+00
    8.800   3.026E+00
    8.900   3.210E+00
    9.000   3.412E+00
    9.100   3.634E+00
    9.200   3.879E+00
    9.300   4.148E+00
    9.400   4.446E+00
    9.500   4.776E+00
    9.600   5.140E+00
    9.700   5.544E+00
    9.800   5.992E+00
    9.900   6.489E+00
   10.000   7.039E+00
   10.100   7.646E+00
   10.200   8.316E+00
   10.300   9.049E+00
   10.400   9.847E+00
   10.500   1.071E+01
   10.600   1.163E+01
   10.700   1.260E+01
   10.800   1.359E+01
   10.900   1.459E+01
   11.000   1.556E+01
   11.100   1.645E+01
   11.200   1.721E+01
   11.300   1.781E+01
   11.400   1.820E+01
   11.500   1.839E+01
   11.600   1.837E+01
   11.700   1.818E+01
   11.800   1.786E+01
   11.900   1.747E+01
   12.000   1.705E+01
   12.100   1.664E+01
   12.200   1.628E+01
   12.300   1.598E+01
   12.400   1.575E+01
   12.500   1.561E+01
   12.600   1.554E+01
   12.700   1.556E+01
   12.800   1.563E+01
   12.900   1.577E+01
   13.000   1.595E+01
   13.100   1.616E+01
   13.200   1.639E+01
   13.300   1.662E+01
   13.400   1.685E+01
   13.500   1.705E+01
   13.600   1.723E+01
   13.700   1.737E+01
   13.800   1.748E+01
   13.900   1.755E+01
   14.000   1.760E+01
   14.100   1.763E+01
   14.200   1.765E+01
   14.300   1.767E+01
   14.400   1.768E+01
   14.500   1.769E+01
   14.600   1.769E+01
   14.700   1.765E+01
   14.800   1.757E+01
   14.900   1.742E+01
   15.000   1.718E+01
   15.100   1.685E+01
   15.200   1.644E+01
   15.300   1.595E+01
   15.400   1.541E+01
   15.500   1.483E+01
   15.600   1.424E+01
   15.700   1.366E+01
   15.800   1.310E+01
   15.900   1.256E+01
   16.000   1.206E+01
   16.100   1.159E+01
   16.200   1.114E+01
   16.300   1.073E+01
   16.400   1.033E+01
   16.500   9.952E+00
   16.600   9.585E+00
   16.700   9.224E+00
   16.800   8.865E+00
   16.900   8.501E+00
   17.000   8.129E+00
   17.100   7.747E+00
   17.200   7.356E+00
   17.300   6.960E+00
   17.400   6.563E+00
   17.500   6.173E+00
   17.600   5.794E+00
   17.700   5.433E+00
   17.800   5.092E+00
   17.900   4.775E+00
   18.000   4.481E+00
   18.100   4.211E+00
   18.200   3.964E+00
   18.300   3.738E+00
   18.400   3.531E+00
   18.500   3.342E+00
   18.600   3.169E+00
   18.700   3.010E+00
   18.800   2.865E+00
   18.900   2.731E+00
   19.000   2.607E+00
   19.100   2.493E+00
   19.200   2.387E+00
   19.300   2.289E+00
   19.400   2.198E+00
   19.500   2.113E+00
   19.600   2.034E+00
   19.700   1.960E+00
   19.800   1.890E+00
   19.900   1.825E+00
   20.000   1.763E+00
   20.100   1.705E+00
   20.200   1.650E+00
   20.300   1.599E+00
   20.400   1.550E+00
   20.500   1.504E+00
   20.600   1.460E+00
   20.700   1.418E+00
   20.800   1.378E+00
   20.900   1.340E+00
   21.000   1.304E+00
   21.100   1.270E+00
   21.200   1.237E+00
   21.300   1.205E+00
   21.400   1.175E+00
   21.500   1.147E+00
   21.600   1.119E+00
   21.700   1.093E+00
   21.800   1.067E+00
   21.900   1.043E+00
   22.000   1.019E+00
   22.100   9.968E-01
   22.200   9.751E-01
   22.300   9.542E-01
   22.400   9.340E-01
   22.500   9.145E-01
   22.600   8.958E-01
   22.700   8.777E-01
   22.800   8.602E-01
   22.900   8.433E-01
   23.000   8.269E-01
   23.100   8.111E-01
   23.200   7.958E-01
   23.300   7.809E-01
   23.400   7.666E-01
   23.500   7.527E-01
   23.600   7.392E-01
   23.700   7.261E-01
   23.800   7.134E-01
   23.900   7.010E-01
   24.000   6.890E-01
   24.100   6.774E-01
   24.200   6.661E-01
   24.300   6.551E-01
   24.400   6.444E-01
   24.500   6.340E-01
   24.600   6.239E-01
   24.700   6.140E-01
   24.800   6.044E-01
   24.900   5.951E-01
   25.000   5.860E-01
   25.100   5.771E-01
   25.200   5.684E-01
   25.300   5.600E-01
   25.400   5.518E-01
   25.500   5.437E-01
   25.600   5.359E-01
   25.700   5.283E-01
   25.800   5.208E-01
   25.900   5.135E-01
   26.000   5.064E-01
   26.100   4.994E-01
   26.200   4.926E-01
   26.300   4.859E-01
   26.400   4.794E-01
   26.500   4.731E-01
   26.600   4.669E-01
   26.700   4.608E-01
   26.800   4.548E-01
   26.900   4.490E-01
   27.000   4.433E-01
   27.100   4.377E-01
   27.200   4.322E-01
   27.300   4.269E-01
   27.400   4.216E-01
   27.500   4.165E-01
   27.600   4.114E-01
   27.700   4.065E-01
   27.800   4.016E-01
   27.900   3.969E-01
   28.000   3.922E-01
   28.100   3.877E-01
   28.200   3.832E-01
   28.300   3.788E-01
   28.400   3.745E-01
   28.500   3.703E-01
   28.600   3.661E-01
   28.700   3.620E-01
   28.800   3.580E-01
   28.900   3.541E-01
   29.000   3.502E-01
   29.100   3.464E-01
   29.200   3.427E-01
   29.300   3.390E-01
   29.400   3.354E-01
   29.500   3.319E-01
   29.600   3.284E-01
   29.700   3.250E-01
   29.800   3.217E-01
   29.900   3.184E-01
   30.000   3.151E-01
 
 Z=  61 A= 156  D1M-QRPA-Inter
 E[MeV]  fQRPA[mb/MeV]
    0.100   1.287E-03
    0.200   4.695E-03
    0.300   9.453E-03
    0.400   1.492E-02
    0.500   2.064E-02
    0.600   2.632E-02
    0.700   3.183E-02
    0.800   3.712E-02
    0.900   4.222E-02
    1.000   4.718E-02
    1.100   5.206E-02
    1.200   5.694E-02
    1.300   6.186E-02
    1.400   6.689E-02
    1.500   7.205E-02
    1.600   7.738E-02
    1.700   8.288E-02
    1.800   8.857E-02
    1.900   9.447E-02
    2.000   1.006E-01
    2.100   1.069E-01
    2.200   1.136E-01
    2.300   1.205E-01
    2.400   1.277E-01
    2.500   1.354E-01
    2.600   1.435E-01
    2.700   1.520E-01
    2.800   1.611E-01
    2.900   1.708E-01
    3.000   1.811E-01
    3.100   1.922E-01
    3.200   2.041E-01
    3.300   2.169E-01
    3.400   2.306E-01
    3.500   2.454E-01
    3.600   2.613E-01
    3.700   2.784E-01
    3.800   2.967E-01
    3.900   3.163E-01
    4.000   3.372E-01
    4.100   3.595E-01
    4.200   3.830E-01
    4.300   4.079E-01
    4.400   4.340E-01
    4.500   4.612E-01
    4.600   4.895E-01
    4.700   5.185E-01
    4.800   5.484E-01
    4.900   5.788E-01
    5.000   6.097E-01
    5.100   6.411E-01
    5.200   6.731E-01
    5.300   7.057E-01
    5.400   7.391E-01
    5.500   7.737E-01
    5.600   8.096E-01
    5.700   8.471E-01
    5.800   8.865E-01
    5.900   9.281E-01
    6.000   9.721E-01
    6.100   1.019E+00
    6.200   1.068E+00
    6.300   1.120E+00
    6.400   1.176E+00
    6.500   1.234E+00
    6.600   1.296E+00
    6.700   1.362E+00
    6.800   1.431E+00
    6.900   1.503E+00
    7.000   1.579E+00
    7.100   1.658E+00
    7.200   1.740E+00
    7.300   1.826E+00
    7.400   1.914E+00
    7.500   2.005E+00
    7.600   2.100E+00
    7.700   2.198E+00
    7.800   2.300E+00
    7.900   2.407E+00
    8.000   2.519E+00
    8.100   2.639E+00
    8.200   2.766E+00
    8.300   2.902E+00
    8.400   3.047E+00
    8.500   3.205E+00
    8.600   3.374E+00
    8.700   3.558E+00
    8.800   3.757E+00
    8.900   3.974E+00
    9.000   4.210E+00
    9.100   4.466E+00
    9.200   4.747E+00
    9.300   5.052E+00
    9.400   5.387E+00
    9.500   5.752E+00
    9.600   6.151E+00
    9.700   6.588E+00
    9.800   7.066E+00
    9.900   7.587E+00
   10.000   8.156E+00
   10.100   8.774E+00
   10.200   9.444E+00
   10.300   1.016E+01
   10.400   1.094E+01
   10.500   1.175E+01
   10.600   1.261E+01
   10.700   1.350E+01
   10.800   1.440E+01
   10.900   1.530E+01
   11.000   1.616E+01
   11.100   1.696E+01
   11.200   1.767E+01
   11.300   1.825E+01
   11.400   1.868E+01
   11.500   1.895E+01
   11.600   1.906E+01
   11.700   1.903E+01
   11.800   1.889E+01
   11.900   1.867E+01
   12.000   1.840E+01
   12.100   1.811E+01
   12.200   1.782E+01
   12.300   1.757E+01
   12.400   1.736E+01
   12.500   1.720E+01
   12.600   1.709E+01
   12.700   1.704E+01
   12.800   1.704E+01
   12.900   1.709E+01
   13.000   1.718E+01
   13.100   1.730E+01
   13.200   1.744E+01
   13.300   1.760E+01
   13.400   1.776E+01
   13.500   1.792E+01
   13.600   1.807E+01
   13.700   1.820E+01
   13.800   1.831E+01
   13.900   1.839E+01
   14.000   1.846E+01
   14.100   1.851E+01
   14.200   1.854E+01
   14.300   1.856E+01
   14.400   1.857E+01
   14.500   1.856E+01
   14.600   1.854E+01
   14.700   1.849E+01
   14.800   1.841E+01
   14.900   1.828E+01
   15.000   1.811E+01
   15.100   1.788E+01
   15.200   1.761E+01
   15.300   1.729E+01
   15.400   1.693E+01
   15.500   1.655E+01
   15.600   1.615E+01
   15.700   1.574E+01
   15.800   1.532E+01
   15.900   1.491E+01
   16.000   1.451E+01
   16.100   1.410E+01
   16.200   1.371E+01
   16.300   1.331E+01
   16.400   1.293E+01
   16.500   1.254E+01
   16.600   1.216E+01
   16.700   1.177E+01
   16.800   1.139E+01
   16.900   1.100E+01
   17.000   1.061E+01
   17.100   1.021E+01
   17.200   9.808E+00
   17.300   9.405E+00
   17.400   9.004E+00
   17.500   8.608E+00
   17.600   8.221E+00
   17.700   7.848E+00
   17.800   7.489E+00
   17.900   7.148E+00
   18.000   6.824E+00
   18.100   6.519E+00
   18.200   6.231E+00
   18.300   5.959E+00
   18.400   5.704E+00
   18.500   5.463E+00
   18.600   5.235E+00
   18.700   5.021E+00
   18.800   4.818E+00
   18.900   4.626E+00
   19.000   4.445E+00
   19.100   4.273E+00
   19.200   4.109E+00
   19.300   3.954E+00
   19.400   3.806E+00
   19.500   3.665E+00
   19.600   3.531E+00
   19.700   3.404E+00
   19.800   3.282E+00
   19.900   3.166E+00
   20.000   3.055E+00
   20.100   2.949E+00
   20.200   2.849E+00
   20.300   2.752E+00
   20.400   2.660E+00
   20.500   2.573E+00
   20.600   2.489E+00
   20.700   2.409E+00
   20.800   2.332E+00
   20.900   2.259E+00
   21.000   2.189E+00
   21.100   2.122E+00
   21.200   2.058E+00
   21.300   1.997E+00
   21.400   1.938E+00
   21.500   1.882E+00
   21.600   1.829E+00
   21.700   1.777E+00
   21.800   1.729E+00
   21.900   1.682E+00
   22.000   1.637E+00
   22.100   1.595E+00
   22.200   1.554E+00
   22.300   1.515E+00
   22.400   1.478E+00
   22.500   1.442E+00
   22.600   1.408E+00
   22.700   1.375E+00
   22.800   1.344E+00
   22.900   1.314E+00
   23.000   1.285E+00
   23.100   1.257E+00
   23.200   1.230E+00
   23.300   1.204E+00
   23.400   1.179E+00
   23.500   1.155E+00
   23.600   1.132E+00
   23.700   1.110E+00
   23.800   1.088E+00
   23.900   1.068E+00
   24.000   1.048E+00
   24.100   1.028E+00
   24.200   1.009E+00
   24.300   9.911E-01
   24.400   9.734E-01
   24.500   9.563E-01
   24.600   9.397E-01
   24.700   9.236E-01
   24.800   9.080E-01
   24.900   8.928E-01
   25.000   8.781E-01
   25.100   8.638E-01
   25.200   8.499E-01
   25.300   8.363E-01
   25.400   8.232E-01
   25.500   8.103E-01
   25.600   7.979E-01
   25.700   7.857E-01
   25.800   7.739E-01
   25.900   7.623E-01
   26.000   7.511E-01
   26.100   7.401E-01
   26.200   7.294E-01
   26.300   7.190E-01
   26.400   7.088E-01
   26.500   6.989E-01
   26.600   6.892E-01
   26.700   6.797E-01
   26.800   6.705E-01
   26.900   6.614E-01
   27.000   6.526E-01
   27.100   6.439E-01
   27.200   6.355E-01
   27.300   6.272E-01
   27.400   6.191E-01
   27.500   6.112E-01
   27.600   6.035E-01
   27.700   5.959E-01
   27.800   5.885E-01
   27.900   5.812E-01
   28.000   5.741E-01
   28.100   5.671E-01
   28.200   5.603E-01
   28.300   5.536E-01
   28.400   5.470E-01
   28.500   5.406E-01
   28.600   5.343E-01
   28.700   5.281E-01
   28.800   5.220E-01
   28.900   5.161E-01
   29.000   5.102E-01
   29.100   5.045E-01
   29.200   4.989E-01
   29.300   4.933E-01
   29.400   4.879E-01
   29.500   4.826E-01
   29.600   4.774E-01
   29.700   4.722E-01
   29.800   4.672E-01
   29.900   4.622E-01
   30.000   4.574E-01
 
 Z=  61 A= 157  D1M-QRPA-Inter
 E[MeV]  fQRPA[mb/MeV]
    0.100   8.804E-04
    0.200   3.110E-03
    0.300   6.149E-03
    0.400   9.688E-03
    0.500   1.356E-02
    0.600   1.767E-02
    0.700   2.201E-02
    0.800   2.656E-02
    0.900   3.134E-02
    1.000   3.638E-02
    1.100   4.168E-02
    1.200   4.725E-02
    1.300   5.310E-02
    1.400   5.923E-02
    1.500   6.564E-02
    1.600   7.232E-02
    1.700   7.928E-02
    1.800   8.651E-02
    1.900   9.404E-02
    2.000   1.019E-01
    2.100   1.100E-01
    2.200   1.185E-01
    2.300   1.274E-01
    2.400   1.366E-01
    2.500   1.464E-01
    2.600   1.567E-01
    2.700   1.676E-01
    2.800   1.792E-01
    2.900   1.914E-01
    3.000   2.045E-01
    3.100   2.185E-01
    3.200   2.333E-01
    3.300   2.492E-01
    3.400   2.661E-01
    3.500   2.841E-01
    3.600   3.033E-01
    3.700   3.236E-01
    3.800   3.452E-01
    3.900   3.681E-01
    4.000   3.922E-01
    4.100   4.175E-01
    4.200   4.441E-01
    4.300   4.718E-01
    4.400   5.006E-01
    4.500   5.305E-01
    4.600   5.614E-01
    4.700   5.931E-01
    4.800   6.258E-01
    4.900   6.593E-01
    5.000   6.937E-01
    5.100   7.290E-01
    5.200   7.654E-01
    5.300   8.030E-01
    5.400   8.419E-01
    5.500   8.823E-01
    5.600   9.244E-01
    5.700   9.684E-01
    5.800   1.014E+00
    5.900   1.063E+00
    6.000   1.114E+00
    6.100   1.167E+00
    6.200   1.223E+00
    6.300   1.283E+00
    6.400   1.345E+00
    6.500   1.410E+00
    6.600   1.479E+00
    6.700   1.551E+00
    6.800   1.626E+00
    6.900   1.705E+00
    7.000   1.786E+00
    7.100   1.871E+00
    7.200   1.960E+00
    7.300   2.051E+00
    7.400   2.146E+00
    7.500   2.245E+00
    7.600   2.348E+00
    7.700   2.455E+00
    7.800   2.568E+00
    7.900   2.685E+00
    8.000   2.809E+00
    8.100   2.940E+00
    8.200   3.079E+00
    8.300   3.227E+00
    8.400   3.384E+00
    8.500   3.553E+00
    8.600   3.734E+00
    8.700   3.928E+00
    8.800   4.138E+00
    8.900   4.363E+00
    9.000   4.606E+00
    9.100   4.868E+00
    9.200   5.151E+00
    9.300   5.457E+00
    9.400   5.787E+00
    9.500   6.143E+00
    9.600   6.527E+00
    9.700   6.942E+00
    9.800   7.388E+00
    9.900   7.867E+00
   10.000   8.381E+00
   10.100   8.929E+00
   10.200   9.510E+00
   10.300   1.012E+01
   10.400   1.077E+01
   10.500   1.144E+01
   10.600   1.213E+01
   10.700   1.283E+01
   10.800   1.353E+01
   10.900   1.422E+01
   11.000   1.489E+01
   11.100   1.551E+01
   11.200   1.608E+01
   11.300   1.658E+01
   11.400   1.699E+01
   11.500   1.731E+01
   11.600   1.754E+01
   11.700   1.767E+01
   11.800   1.772E+01
   11.900   1.769E+01
   12.000   1.760E+01
   12.100   1.747E+01
   12.200   1.731E+01
   12.300   1.714E+01
   12.400   1.696E+01
   12.500   1.680E+01
   12.600   1.667E+01
   12.700   1.656E+01
   12.800   1.647E+01
   12.900   1.643E+01
   13.000   1.641E+01
   13.100   1.642E+01
   13.200   1.646E+01
   13.300   1.652E+01
   13.400   1.660E+01
   13.500   1.670E+01
   13.600   1.680E+01
   13.700   1.690E+01
   13.800   1.700E+01
   13.900   1.709E+01
   14.000   1.717E+01
   14.100   1.723E+01
   14.200   1.727E+01
   14.300   1.729E+01
   14.400   1.729E+01
   14.500   1.727E+01
   14.600   1.723E+01
   14.700   1.717E+01
   14.800   1.710E+01
   14.900   1.701E+01
   15.000   1.692E+01
   15.100   1.682E+01
   15.200   1.672E+01
   15.300   1.661E+01
   15.400   1.650E+01
   15.500   1.637E+01
   15.600   1.623E+01
   15.700   1.607E+01
   15.800   1.590E+01
   15.900   1.570E+01
   16.000   1.547E+01
   16.100   1.522E+01
   16.200   1.495E+01
   16.300   1.466E+01
   16.400   1.434E+01
   16.500   1.401E+01
   16.600   1.367E+01
   16.700   1.332E+01
   16.800   1.297E+01
   16.900   1.262E+01
   17.000   1.227E+01
   17.100   1.193E+01
   17.200   1.160E+01
   17.300   1.127E+01
   17.400   1.095E+01
   17.500   1.064E+01
   17.600   1.034E+01
   17.700   1.005E+01
   17.800   9.767E+00
   17.900   9.488E+00
   18.000   9.216E+00
   18.100   8.948E+00
   18.200   8.685E+00
   18.300   8.426E+00
   18.400   8.170E+00
   18.500   7.919E+00
   18.600   7.671E+00
   18.700   7.426E+00
   18.800   7.186E+00
   18.900   6.951E+00
   19.000   6.720E+00
   19.100   6.493E+00
   19.200   6.271E+00
   19.300   6.055E+00
   19.400   5.844E+00
   19.500   5.638E+00
   19.600   5.437E+00
   19.700   5.243E+00
   19.800   5.054E+00
   19.900   4.871E+00
   20.000   4.695E+00
   20.100   4.524E+00
   20.200   4.360E+00
   20.300   4.202E+00
   20.400   4.050E+00
   20.500   3.904E+00
   20.600   3.763E+00
   20.700   3.629E+00
   20.800   3.500E+00
   20.900   3.376E+00
   21.000   3.258E+00
   21.100   3.144E+00
   21.200   3.036E+00
   21.300   2.932E+00
   21.400   2.833E+00
   21.500   2.739E+00
   21.600   2.649E+00
   21.700   2.564E+00
   21.800   2.483E+00
   21.900   2.406E+00
   22.000   2.332E+00
   22.100   2.262E+00
   22.200   2.196E+00
   22.300   2.133E+00
   22.400   2.073E+00
   22.500   2.017E+00
   22.600   1.962E+00
   22.700   1.911E+00
   22.800   1.861E+00
   22.900   1.814E+00
   23.000   1.770E+00
   23.100   1.727E+00
   23.200   1.686E+00
   23.300   1.646E+00
   23.400   1.609E+00
   23.500   1.573E+00
   23.600   1.538E+00
   23.700   1.505E+00
   23.800   1.473E+00
   23.900   1.442E+00
   24.000   1.412E+00
   24.100   1.384E+00
   24.200   1.356E+00
   24.300   1.330E+00
   24.400   1.304E+00
   24.500   1.279E+00
   24.600   1.255E+00
   24.700   1.232E+00
   24.800   1.210E+00
   24.900   1.188E+00
   25.000   1.167E+00
   25.100   1.146E+00
   25.200   1.127E+00
   25.300   1.108E+00
   25.400   1.089E+00
   25.500   1.071E+00
   25.600   1.053E+00
   25.700   1.036E+00
   25.800   1.020E+00
   25.900   1.004E+00
   26.000   9.880E-01
   26.100   9.727E-01
   26.200   9.579E-01
   26.300   9.434E-01
   26.400   9.293E-01
   26.500   9.156E-01
   26.600   9.022E-01
   26.700   8.891E-01
   26.800   8.764E-01
   26.900   8.640E-01
   27.000   8.519E-01
   27.100   8.401E-01
   27.200   8.285E-01
   27.300   8.172E-01
   27.400   8.062E-01
   27.500   7.954E-01
   27.600   7.849E-01
   27.700   7.746E-01
   27.800   7.645E-01
   27.900   7.547E-01
   28.000   7.451E-01
   28.100   7.356E-01
   28.200   7.264E-01
   28.300   7.174E-01
   28.400   7.085E-01
   28.500   6.999E-01
   28.600   6.914E-01
   28.700   6.831E-01
   28.800   6.750E-01
   28.900   6.670E-01
   29.000   6.591E-01
   29.100   6.515E-01
   29.200   6.440E-01
   29.300   6.366E-01
   29.400   6.293E-01
   29.500   6.222E-01
   29.600   6.153E-01
   29.700   6.084E-01
   29.800   6.017E-01
   29.900   5.951E-01
   30.000   5.887E-01
 
